Timestamp,F3 Value,F3 Quality,FC5 Value,FC5 Quality,F7 Value,F7 Quality,T7 Value,T7 Quality,P7 Value,P7 Quality,O1 Value,O1 Quality,O2 Value,O2 Quality,P8 Value,P8 Quality,T8 Value,T8 Quality,F8 Value,F8 Quality,AF4 Value,AF4 Quality,FC6 Value,FC6 Quality,F4 Value,F4 Quality,AF3 Value,AF3 Quality,X Value,Y Value,Z Value
2017-08-07 12:14:44.212071,8281.57575675,0,3264.51515119,0,80.3636363556,0,6377.57575694,0,4383.42424199,0,4672.42424196,0,4402.48484804,0,4211.87878746,0,5090.72727222,2794.1818179,4134.60606019,0,4412.27272683,0,4556.51515106,0,4925.36363587,0,4549.81818136,0,42.0,42.0,?
2017-08-07 12:14:44.212865,4527.66666621,0,4138.72727231,0,3640.57575721,0,3771.93939356,0,4383.42424199,0,4672.42424196,0,4402.48484804,0,4211.87878746,0,5090.72727222,2794.1818179,4134.60606019,0,4412.27272683,0,4556.51515106,0,4925.36363587,0,4549.81818136,0,42.0,42.0,?
2017-08-07 12:14:44.217196,4525.60606015,0,4140.27272686,0,3643.15151479,0,3773.48484811,0,4383.9393935,0,4670.87878741,0,4414.84848441,0,4212.39393897,0,5091.24242373,2794.1818179,4134.60606019,523.393939342,4409.18181774,0,4550.33333288,0,4917.12121163,0,4550.84848439,0,42.0,42.0,?
2017-08-07 12:14:44.219056,4530.24242379,0,4132.03030262,0,3643.6666663,0,3775.03030265,0,4374.15151471,0,4663.6666662,0,4420.51515107,0,4213.424242,0,5081.45454495,2794.1818179,4137.69696928,523.393939342,4404.03030259,4092.36363595,4540.54545409,0,4919.6969692,0,4551.36363591,0,42.0,42.0,?
2017-08-07 12:14:44.230900,4530.24242379,0,4132.03030262,0,3643.6666663,0,3773.99999962,0,4374.15151471,0,4660.57575711,0,4409.69696926,0,4211.87878746,0,5081.45454495,2794.1818179,4135.63636322,523.393939342,4400.9393935,4092.36363595,4540.54545409,3985.21212081,4920.72727224,0,4550.84848439,0,42.0,42.0,?
2017-08-07 12:14:44.233346,4529.21212076,0,4132.03030262,0,3642.63636327,0,3774.51515114,0,4374.15151471,0,4658.51515105,0,4403.51515107,0,4210.33333291,0,5077.33333283,2794.1818179,4133.06060565,523.393939342,4405.57575714,4092.36363595,4542.09090864,3985.21212081,4917.12121163,3671.99999963,4552.90909045,0,42.0,42.0,?
2017-08-07 12:14:44.236355,4533.33333288,0,4137.18181777,0,3647.78787842,0,3776.06060568,0,4371.06060562,0,4649.75757529,0,4399.39393895,0,4211.36363594,0,5078.87878737,2794.1818179,4133.06060565,519.272727221,4410.72727229,4092.36363595,4540.54545409,3985.21212081,4919.6969692,3671.99999963,4552.90909045,0,42.0,42.0,?
2017-08-07 12:14:44.245169,4538.48484803,0,4134.09090868,0,3648.30302994,0,3776.5757572,0,4365.39393896,0,4644.09090863,0,4388.06060562,0,4211.87878746,0,5080.42424192,2794.1818179,4133.57575716,519.272727221,4409.69696926,4100.6060602,4541.06060561,3985.21212081,4922.7878783,3671.99999963,4549.81818136,0,42.0,42.0,?
2017-08-07 12:14:44.248522,4535.39393894,0,4125.33333292,0,3643.15151479,0,3776.5757572,0,4370.03030259,0,4653.87878741,0,4384.96969653,0,4209.8181814,0,5079.39393889,2794.1818179,4130.99999959,519.272727221,4408.66666623,4100.6060602,4542.60606015,3985.21212081,4923.30302981,3671.99999963,4550.84848439,0,42.0,42.0,?
2017-08-07 12:14:44.252854,4533.33333288,0,4125.84848444,0,3644.18181782,0,3776.06060568,0,4379.30302987,0,4667.27272681,0,4394.2424238,0,4208.27272685,0,5075.27272677,2794.1818179,4128.42424201,519.272727221,4408.66666623,4100.6060602,4542.09090864,3985.21212081,4923.30302981,3671.99999963,4552.39393894,0,42.0,42.0,?
2017-08-07 12:14:44.256137,4535.90909046,0,4129.96969656,0,3646.75757539,0,3777.60606023,0,4380.3333329,0,4673.45454499,0,4406.60606017,0,4217.03030261,0,5078.36363586,2794.1818179,4132.03030262,519.272727221,4405.06060562,4100.6060602,4548.27272682,3985.21212081,4922.27272678,3671.99999963,4550.84848439,0,42.0,42.0,?
2017-08-07 12:14:44.260132,4537.96969652,0,4127.39393898,0,3646.75757539,0,3779.66666629,0,4378.78787835,0,4677.57575711,0,4417.9393935,0,4230.93939352,0,5088.15151464,2794.1818179,4134.60606019,519.272727221,4404.03030259,4100.6060602,4557.03030257,3985.21212081,4920.21212072,3671.99999963,4549.30302985,0,42.0,42.0,?
2017-08-07 12:14:44.263014,4536.42424197,0,4124.81818141,0,3649.33333297,0,3779.15151477,0,4385.48484805,0,4680.6666662,0,4419.99999956,0,4234.54545412,0,5091.24242373,2794.1818179,4135.63636322,519.272727221,4410.21212077,4100.6060602,4560.63636318,3985.21212081,4919.6969692,3671.99999963,4547.24242379,0,42.0,42.0,?
2017-08-07 12:14:44.265968,4535.39393894,0,4126.36363595,0,3649.84848448,0,3777.60606023,0,4384.96969653,0,4677.57575711,0,4409.69696926,0,4227.33333291,0,5089.18181767,2794.1818179,4134.09090868,519.272727221,4414.33333289,4100.6060602,4560.63636318,3985.21212081,4922.7878783,3671.99999963,4547.24242379,0,42.0,42.0,?
2017-08-07 12:14:44.269156,4538.99999955,0,4126.87878747,0,3652.42424206,0,3780.69696932,0,4373.12121168,0,4667.27272681,0,4399.39393895,0,4221.15151473,0,5083.51515101,2794.1818179,4128.42424201,519.272727221,4415.87878744,4100.6060602,4557.54545409,3985.21212081,4931.54545405,3671.99999963,4553.93939348,0,42.0,42.0,?
2017-08-07 12:14:44.272382,4540.54545409,0,4125.84848444,0,3656.54545418,0,3783.27272689,0,4367.96969653,0,4658.51515105,0,4395.27272683,0,4223.21212079,0,5082.99999949,2794.1818179,4127.9090905,519.272727221,4416.90909047,4100.6060602,4553.42424197,3985.21212081,4936.6969692,3671.99999963,4554.454545,0,42.0,42.0,?
2017-08-07 12:14:44.275905,4534.87878743,0,4124.30302989,0,3651.90909054,0,3780.1818178,0,4376.21212077,0,4661.60606014,0,4393.72727229,0,4226.8181814,0,5084.54545404,2794.1818179,4132.54545413,519.272727221,4411.2424238,4100.6060602,4555.99999954,3985.21212081,4923.81818133,3671.99999963,4543.12121167,0,42.0,42.0,?
2017-08-07 12:14:44.280022,4529.72727227,0,4118.63636322,0,3644.18181782,0,3778.12121174,0,4389.09090865,0,4678.09090862,0,4397.84848441,0,4232.48484806,0,5084.54545404,2794.1818179,4132.03030262,519.272727221,4403.51515107,4100.6060602,4559.60606015,3985.21212081,4912.99999951,3671.99999963,4540.54545409,0,42.0,42.0,?
2017-08-07 12:14:44.285536,4528.18181773,0,4114.5151511,0,3640.57575721,0,3776.5757572,0,4392.18181774,0,4682.72727226,0,4407.6363632,0,4245.87878745,0,5091.75757525,2794.1818179,4132.03030262,519.272727221,4402.48484804,4100.6060602,4559.09090864,3985.21212081,4914.54545405,3671.99999963,4541.57575712,0,42.0,42.0,?
2017-08-07 12:14:44.288969,4528.18181773,0,4115.54545413,0,3641.09090873,0,3775.54545417,0,4386.51515108,0,4671.90909044,0,4410.21212077,0,4254.63636321,0,5099.48484797,2794.1818179,4136.66666625,519.272727221,4408.15151471,4100.6060602,4560.63636318,3985.21212081,4919.6969692,3671.99999963,4540.54545409,0,42.0,42.0,?
2017-08-07 12:14:44.297779,4530.24242379,0,4113.99999959,0,3644.69696933,0,3775.03030265,0,4382.39393896,0,4669.84848438,0,4406.09090865,0,4247.424242,0,5099.48484797,2794.1818179,4136.66666625,519.272727221,4414.84848441,4100.6060602,4561.1515147,3985.21212081,4925.87878739,3671.99999963,4546.72727227,0,42.0,42.0,?
2017-08-07 12:14:44.303033,4531.27272682,0,4108.84848444,0,3646.24242388,0,3774.51515114,0,4381.36363593,0,4677.57575711,0,4409.69696926,0,4243.81818139,0,5100.51515101,2794.1818179,4137.18181777,519.272727221,4415.36363592,4100.6060602,4562.69696924,3985.21212081,4927.42424193,3671.99999963,4546.72727227,0,42.0,42.0,?
2017-08-07 12:14:44.311425,4528.69696924,0,4108.84848444,0,3645.21212085,0,3776.5757572,0,4381.87878744,0,4679.63636317,0,4421.5454541,0,4257.21212079,0,5109.78787828,2794.1818179,4147.99999959,519.272727221,4412.27272683,4100.6060602,4571.454545,3985.21212081,4925.36363587,3671.99999963,4542.09090864,0,42.0,42.0,?
2017-08-07 12:14:44.321716,4530.7575753,0,4110.9090905,0,3648.81818145,0,3777.60606023,0,4379.81818138,0,4673.45454499,0,4424.63636319,0,4265.45454503,0,5119.57575706,2794.1818179,4153.15151474,519.272727221,4412.78787835,4100.6060602,4580.72727227,3985.21212081,4924.84848436,3671.99999963,4549.30302985,0,42.0,42.0,?
2017-08-07 12:14:44.332215,4538.99999955,0,4109.87878747,0,3656.03030266,0,3779.15151477,0,4378.27272683,0,4667.78787832,0,4415.87878744,0,4262.87878745,0,5119.57575706,2794.1818179,4149.03030262,519.272727221,4421.5454541,4100.6060602,4582.27272681,3985.21212081,4930.51515102,3671.99999963,4559.60606015,0,42.0,42.0,?
2017-08-07 12:14:44.336189,4538.99999955,0,4109.87878747,0,3656.03030266,0,3779.15151477,0,4376.72727229,0,4668.81818135,0,4409.69696926,0,4264.424242,0,5118.54545403,2794.1818179,4150.06060565,519.272727221,4429.78787834,4100.6060602,4578.66666621,3985.21212081,4938.75757526,3671.99999963,4561.1515147,0,42.0,42.0,?
2017-08-07 12:14:44.344927,4534.87878743,0,4110.39393898,0,3652.42424206,0,3777.09090871,0,4375.18181774,0,4670.3636359,0,4407.6363632,0,4262.87878745,0,5117.515151,2794.1818179,4153.66666625,519.272727221,4428.2424238,4100.6060602,4575.0606056,3985.21212081,4938.24242375,3671.99999963,4557.54545409,0,42.0,42.0,?
2017-08-07 12:14:44.361300,4538.99999955,0,4108.33333292,0,3652.93939357,0,3775.03030265,0,4374.66666623,0,4668.30302984,0,4408.66666623,0,4256.18181776,0,5117.515151,2794.1818179,4148.5151511,519.272727221,4426.18181774,4100.6060602,4574.03030257,3985.21212081,4932.06060557,3671.99999963,4550.84848439,0,42.0,42.0,?
2017-08-07 12:14:44.367285,4532.81818136,0,4109.87878747,0,3660.6666663,0,3779.66666629,0,4378.27272683,0,4667.78787832,0,4400.42424198,0,4255.66666624,0,5116.48484797,2794.1818179,4134.09090868,519.272727221,4418.96969653,4100.6060602,4570.93939348,3985.21212081,4923.81818133,3671.99999963,4550.84848439,0,42.0,42.0,?
2017-08-07 12:14:44.370965,4531.27272682,0,4109.87878747,0,3660.6666663,0,3779.66666629,0,4371.06060562,0,4667.78787832,0,4400.42424198,0,4255.66666624,0,5112.87878737,2794.1818179,4134.09090868,519.272727221,4418.96969653,4100.6060602,4573.51515106,3985.21212081,4923.81818133,3671.99999963,4550.84848439,0,42.0,42.0,?
2017-08-07 12:14:44.376564,4536.93939349,0,4106.27272686,0,3658.09090873,0,3770.90909053,0,4363.3333329,0,4656.9696965,0,4406.09090865,0,4252.57575715,0,5115.45454494,2794.1818179,4137.18181777,519.272727221,4424.12121168,4100.6060602,4577.12121166,3985.21212081,4922.7878783,3671.99999963,4549.30302985,0,42.0,42.0,?
2017-08-07 12:14:44.385409,4532.81818136,0,4108.33333292,0,3665.30302994,0,3779.15151477,0,4367.96969653,0,4653.87878741,0,4402.99999956,0,4260.30302988,0,5120.60606009,2794.1818179,4129.45454504,519.272727221,4417.9393935,4100.6060602,4568.87878742,3985.21212081,4926.3939389,3671.99999963,4550.84848439,0,42.0,42.0,?
2017-08-07 12:14:44.391495,4532.81818136,0,4108.33333292,0,3665.30302994,0,3779.15151477,0,4367.96969653,0,4653.87878741,0,4402.99999956,0,4260.30302988,0,5120.60606009,2794.1818179,4129.45454504,519.272727221,4417.9393935,4100.6060602,4568.87878742,3985.21212081,4926.3939389,3671.99999963,4550.84848439,0,42.0,42.0,?
2017-08-07 12:14:44.397533,4525.60606015,0,4110.9090905,0,3666.84848448,0,3779.66666629,0,4376.21212077,0,4658.51515105,0,4395.27272683,0,4254.63636321,0,5120.60606009,2794.1818179,4126.87878747,519.272727221,4406.60606017,4100.6060602,4564.7575753,3985.21212081,4917.12121163,3671.99999963,4545.69696924,0,42.0,42.0,?
2017-08-07 12:14:44.405412,4525.60606015,0,4105.75757535,0,3665.30302994,0,3772.96969659,0,4373.12121168,0,4663.15151469,0,4397.84848441,0,4253.60606018,0,5119.06060555,2794.1818179,4131.5151511,519.272727221,4401.45454501,4100.6060602,4568.87878742,3985.21212081,4907.84848436,3671.99999963,4539.51515106,0,42.0,42.0,?
2017-08-07 12:14:44.415211,4526.12121167,0,4103.18181777,0,3667.363636,0,3772.96969659,0,4368.48484805,0,4662.12121166,0,4394.75757532,0,4258.75757533,0,5123.18181767,2794.1818179,4128.42424201,519.272727221,4402.48484804,4100.6060602,4570.42424197,3985.21212081,4912.48484799,3671.99999963,4542.09090864,0,42.0,42.0,?
2017-08-07 12:14:44.421349,4527.1515147,0,4107.81818141,0,3673.54545418,0,3778.12121174,0,4371.06060562,0,4659.54545408,0,4384.45454502,0,4258.24242382,0,5126.27272676,2794.1818179,4121.2121208,519.272727221,4407.12121168,4100.6060602,4572.99999954,3985.21212081,4916.60606011,3671.99999963,4543.63636318,0,42.0,42.0,?
2017-08-07 12:14:44.429012,4528.69696924,0,4110.9090905,0,3682.81818145,0,3778.12121174,0,4370.54545411,0,4659.03030256,0,4385.99999956,0,4256.69696927,0,5127.30302979,2794.1818179,4121.72727232,519.272727221,4407.6363632,4100.6060602,4576.09090863,3985.21212081,4907.84848436,3671.99999963,4540.54545409,0,42.0,42.0,?
2017-08-07 12:14:44.436499,4523.54545409,0,4107.30302989,0,3687.45454509,0,3776.5757572,0,4364.87878744,0,4652.84848438,0,4385.48484805,0,4249.48484806,0,5125.24242373,2794.1818179,4118.63636322,519.272727221,4399.90909047,4100.6060602,4567.84848439,3985.21212081,4898.57575709,3671.99999963,4535.90909046,0,42.0,42.0,?
2017-08-07 12:14:44.448110,4518.90909046,0,4102.15151474,0,3682.81818145,0,3776.5757572,0,4357.15151472,0,4642.03030257,0,4367.96969653,0,4232.99999958,0,5119.57575706,2794.1818179,4108.33333292,519.272727221,4393.21212077,4100.6060602,4557.54545409,3985.21212081,4896.51515103,3671.99999963,4531.27272682,0,42.0,42.0,?
2017-08-07 12:14:44.453844,4519.42424197,0,4100.09090868,0,3682.30302993,0,3776.06060568,0,4349.9393935,0,4635.84848438,0,4355.09090866,0,4223.7272723,0,5110.81818131,2794.1818179,4103.18181777,519.272727221,4393.72727229,4100.6060602,4555.99999954,3985.21212081,4894.96969648,3671.99999963,4528.69696924,0,42.0,42.0,?
2017-08-07 12:14:44.460540,4518.90909046,0,4104.2121208,0,3692.09090872,0,3778.63636326,0,4350.96969653,0,4637.39393893,0,4362.30302987,0,4224.75757534,0,5110.30302979,2794.1818179,4103.69696929,519.272727221,4396.81818138,4100.6060602,4554.454545,3985.21212081,4899.60606012,3671.99999963,4526.12121167,0,42.0,42.0,?
2017-08-07 12:14:44.468048,4520.454545,0,4109.36363595,0,3701.36363599,0,3784.81818144,0,4358.69696926,0,4639.45454499,0,4366.9393935,0,4230.424242,0,5120.60606009,2794.1818179,4106.27272686,519.272727221,4398.87878744,4100.6060602,4557.03030257,3985.21212081,4907.33333284,3671.99999963,4528.18181773,0,42.0,42.0,?
2017-08-07 12:14:44.475893,4523.54545409,0,4108.84848444,0,3702.90909054,0,3786.36363599,0,4359.72727229,0,4638.93939348,0,4361.27272684,0,4236.60606018,0,5122.15151464,2794.1818179,4108.33333292,519.272727221,4395.78787835,4100.6060602,4558.0606056,3985.21212081,4901.15151466,3671.99999963,4526.12121167,0,42.0,42.0,?
2017-08-07 12:14:44.483311,4516.8484844,0,4104.72727232,0,3696.72727236,0,3780.1818178,0,4354.57575714,0,4637.90909045,0,4363.3333329,0,4242.27272685,0,5119.06060555,2794.1818179,4105.24242383,519.272727221,4383.9393935,4100.6060602,4548.27272682,3985.21212081,4884.66666618,3671.99999963,4514.78787834,0,42.0,42.0,?
2017-08-07 12:14:44.494387,4510.1515147,0,4101.63636323,0,3691.06060569,0,3773.48484811,0,4349.9393935,0,4637.90909045,0,4372.60606017,0,4245.36363594,0,5117.515151,2794.1818179,4095.45454505,519.272727221,4376.72727229,4100.6060602,4541.06060561,3985.21212081,4880.03030254,3671.99999963,4507.57575713,0,42.0,42.0,?
2017-08-07 12:14:44.498990,4510.1515147,0,4100.6060602,0,3695.18181781,0,3773.48484811,0,4349.9393935,0,4639.96969651,0,4372.09090865,0,4248.45454503,0,5114.42424191,2794.1818179,4090.81818141,519.272727221,4380.3333329,4100.6060602,4541.57575712,3985.21212081,4884.66666618,3671.99999963,4510.66666622,0,42.0,42.0,?
2017-08-07 12:14:44.507085,4511.18181773,0,4098.54545414,0,3698.2727269,0,3776.5757572,0,4351.99999956,0,4641.51515105,0,4367.96969653,0,4252.06060564,0,5115.96969646,2794.1818179,4096.48484808,519.272727221,4385.48484805,4100.6060602,4542.09090864,3985.21212081,4884.15151466,3671.99999963,4512.21212076,0,42.0,42.0,?
2017-08-07 12:14:44.517058,4509.12121167,0,4100.6060602,0,3696.72727236,0,3777.60606023,0,4354.06060563,0,4640.48484802,0,4372.09090865,0,4257.21212079,0,5119.57575706,2794.1818179,4097.51515111,519.272727221,4384.96969653,4100.6060602,4541.57575712,3985.21212081,4884.66666618,3671.99999963,4511.18181773,0,42.0,42.0,?
2017-08-07 12:14:44.522525,4510.66666622,0,4105.75757535,0,3697.75757539,0,3775.03030265,0,4351.48484805,0,4639.45454499,0,4373.12121168,0,4258.75757533,0,5120.60606009,2794.1818179,4090.81818141,519.272727221,4375.18181774,4100.6060602,4538.99999955,3985.21212081,4881.06060557,3671.99999963,4511.18181773,0,42.0,42.0,?
2017-08-07 12:14:44.530060,4511.18181773,0,4102.66666626,0,3701.36363599,0,3777.09090871,0,4348.90909047,0,4632.24242378,0,4367.96969653,0,4260.81818139,0,5124.72727221,2794.1818179,4093.9090905,519.272727221,4372.09090865,4100.6060602,4536.42424197,3985.21212081,4871.7878783,3671.99999963,4510.1515147,0,42.0,42.0,?
2017-08-07 12:14:44.540165,4511.18181773,0,4100.09090868,0,3703.42424205,0,3780.69696932,0,4347.87878744,0,4625.54545408,0,4366.42424199,0,4267.51515109,0,5130.39393888,2794.1818179,4102.66666626,519.272727221,4387.54545411,4100.6060602,4546.21212076,3985.21212081,4880.03030254,3671.99999963,4516.8484844,0,42.0,42.0,?
2017-08-07 12:14:44.547056,4515.81818137,0,4105.24242383,0,3703.42424205,0,3779.15151477,0,4344.78787835,0,4629.6666662,0,4367.45454502,0,4268.54545412,0,5133.48484797,2794.1818179,4103.69696929,519.272727221,4396.30302986,4100.6060602,4554.454545,3985.21212081,4895.99999951,3671.99999963,4523.03030258,0,42.0,42.0,?
2017-08-07 12:14:44.554150,4519.42424197,0,4109.87878747,0,3708.06060569,0,3780.69696932,0,4345.30302987,0,4638.93939348,0,4368.99999956,0,4268.0303026,0,5142.75757524,2794.1818179,4107.81818141,519.272727221,4391.66666623,4100.6060602,4554.454545,3985.21212081,4891.36363587,3671.99999963,4518.39393894,0,42.0,42.0,?
2017-08-07 12:14:44.562410,4518.39393894,0,4109.36363595,0,3711.6666663,0,3785.33333295,0,4347.36363593,0,4640.48484802,0,4368.99999956,0,4272.15151472,0,5146.87878736,2794.1818179,4112.96969656,519.272727221,4389.60606017,4100.6060602,4553.93939348,3985.21212081,4880.03030254,3671.99999963,4514.78787834,0,42.0,42.0,?
2017-08-07 12:14:44.570077,4513.75757531,0,4108.33333292,0,3709.60606024,0,3783.27272689,0,4344.27272684,0,4635.33333287,0,4370.03030259,0,4274.21212078,0,5135.54545403,2794.1818179,4106.27272686,519.272727221,4387.03030259,4100.6060602,4550.84848439,3985.21212081,4881.06060557,3671.99999963,4514.78787834,0,42.0,42.0,?
2017-08-07 12:14:44.576987,4511.69696925,3981.09090869,4108.33333292,0,3709.60606024,0,3782.24242386,0,4344.78787835,0,4633.27272681,0,4371.57575714,0,4272.15151472,0,5129.36363585,2794.1818179,4099.06060565,519.272727221,4380.84848441,4100.6060602,4543.63636318,3985.21212081,4880.54545406,3671.99999963,4513.24242379,0,42.0,42.0,?
2017-08-07 12:14:44.585616,4511.69696925,3981.09090869,4109.87878747,4051.15151475,3715.2727269,0,3786.36363599,0,4350.45454502,0,4635.84848438,0,4371.57575714,0,4274.7272723,0,5137.60606009,2794.1818179,4103.69696929,519.272727221,4380.84848441,4100.6060602,4539.51515106,3985.21212081,4875.90909042,3671.99999963,4511.18181773,0,42.0,42.0,?
2017-08-07 12:14:44.593436,4512.72727228,3981.09090869,4112.45454504,4051.15151475,3717.33333296,0,3786.36363599,0,4353.54545411,0,4638.42424196,0,4373.12121168,0,4282.96969654,0,5146.36363585,2794.1818179,4113.48484807,519.272727221,4384.96969653,4100.6060602,4549.30302985,3985.21212081,4879.51515103,3671.99999963,4512.21212076,0.0,42.0,42.0,?
2017-08-07 12:14:44.600999,4513.75757531,3981.09090869,4113.48484807,4051.15151475,3715.78787842,593.454545395,3785.84848447,0,4351.99999956,0,4638.42424196,0,4372.09090865,0,4286.57575715,0,5144.30302979,2794.1818179,4119.15151474,519.272727221,4388.06060562,4100.6060602,4559.60606015,3985.21212081,4882.60606012,3671.99999963,4515.81818137,0.0,42.0,42.0,?
2017-08-07 12:14:44.609970,4513.24242379,3981.09090869,4112.96969656,4051.15151475,3718.36363599,593.454545395,3786.36363599,708.848484778,4347.36363593,0,4634.30302984,0,4363.3333329,0,4285.0303026,0,5141.2121207,2794.1818179,4118.12121171,519.272727221,4393.72727229,4100.6060602,4552.90909045,3985.21212081,4883.63636315,3671.99999963,4518.90909046,0.0,42.0,42.0,?
2017-08-07 12:14:44.619013,4512.21212076,3981.09090869,4110.9090905,4051.15151475,3718.36363599,593.454545395,3781.21212083,708.848484778,4344.27272684,461.57575753,4626.0606056,0,4362.30302987,0,4283.99999957,0,5143.78787827,2794.1818179,4115.54545413,519.272727221,4400.42424198,4100.6060602,4546.72727227,3985.21212081,4891.36363587,3671.99999963,4517.36363591,0.0,42.0,42.0,?
2017-08-07 12:14:44.624134,4514.78787834,3981.09090869,4109.36363595,4051.15151475,3713.72727236,593.454545395,3776.5757572,708.848484778,4343.24242381,461.57575753,4623.48484802,177.212121194,4368.99999956,0,4285.0303026,0,5144.8181813,2794.1818179,4118.12121171,519.272727221,4399.39393895,4100.6060602,4554.454545,3985.21212081,4894.96969648,3671.99999963,4513.24242379,0.0,42.0,42.0,?
2017-08-07 12:14:44.632074,4513.75757531,3981.09090869,4107.81818141,4051.15151475,3713.72727236,593.454545395,3778.63636326,708.848484778,4339.6363632,461.57575753,4625.54545408,177.212121194,4362.81818138,3226.90909059,4280.90909048,0,5142.75757524,2794.1818179,4119.66666625,519.272727221,4395.78787835,4100.6060602,4557.03030257,3985.21212081,4889.30302981,3671.99999963,4511.69696925,0.0,42.0,42.0,?
2017-08-07 12:14:44.641641,4509.63636319,3981.09090869,4105.75757535,4051.15151475,3717.33333296,593.454545395,3781.72727235,708.848484778,4332.42424199,461.57575753,4620.39393893,177.212121194,4348.39393896,3226.90909059,4274.7272723,3301.09090876,5138.63636312,2794.1818179,4113.99999959,519.272727221,4401.45454501,4100.6060602,4548.78787833,3985.21212081,4888.7878783,3671.99999963,4515.81818137,0.0,42.0,42.0,?
2017-08-07 12:14:44.649723,4516.8484844,3981.09090869,4108.84848444,4051.15151475,3718.36363599,593.454545395,3781.21212083,708.848484778,4325.72727229,461.57575753,4616.27272681,177.212121194,4345.30302987,3226.90909059,4269.06060563,3301.09090876,5135.03030252,2806.54545426,4109.36363595,519.272727221,4407.6363632,4100.6060602,4548.27272682,3985.21212081,4900.12121163,3671.99999963,4521.99999955,0.0,42.0,42.0,?
2017-08-07 12:14:44.656295,4523.54545409,3981.09090869,4108.33333292,4051.15151475,3717.33333296,593.454545395,3778.63636326,708.848484778,4323.15151472,461.57575753,4621.42424196,177.212121194,4348.39393896,3226.90909059,4264.93939351,3301.09090876,5132.96969646,2806.54545426,4109.36363595,523.393939342,4402.99999956,4100.6060602,4548.27272682,3985.21212081,4901.66666618,3671.99999963,4519.93939349,0.0,42.0,42.0,?
2017-08-07 12:14:44.663438,4513.24242379,3981.09090869,4100.6060602,4051.15151475,3714.75757539,593.454545395,3776.06060568,708.848484778,4322.6363632,461.57575753,4621.93939348,177.212121194,4349.42424199,3226.90909059,4266.99999957,3301.09090876,5127.81818131,2806.54545426,4104.72727232,523.393939342,4391.66666623,4154.18181777,4541.57575712,3985.21212081,4886.72727224,3671.99999963,4511.18181773,0.0,42.0,42.0,?
2017-08-07 12:14:44.673830,4503.96969652,3981.09090869,4097.51515111,4051.15151475,3709.09090872,593.454545395,3772.96969659,708.848484778,4322.12121169,461.57575753,4619.87878742,177.212121194,4348.90909047,3226.90909059,4274.21212078,3301.09090876,5131.93939343,2806.54545426,4099.06060565,523.393939342,4383.9393935,4154.18181777,4544.66666621,3972.84848445,4874.87878739,3671.99999963,4508.09090864,0.0,42.0,42.0,?
2017-08-07 12:14:44.680898,4506.54545409,3981.09090869,4098.03030262,4051.15151475,3704.45454508,593.454545395,3770.39393902,708.848484778,4326.24242381,461.57575753,4623.99999954,177.212121194,4346.84848441,3226.90909059,4274.7272723,3301.09090876,5143.78787827,2806.54545426,4101.63636323,523.393939342,4390.6363632,4154.18181777,4560.63636318,3972.84848445,4882.60606012,3709.09090872,4512.21212076,0.0,42.0,42.0,?
2017-08-07 12:14:44.687928,4511.69696925,3981.09090869,4093.9090905,4051.15151475,3700.84848448,593.454545395,3767.81818144,708.848484778,4329.3333329,461.57575753,4621.93939348,177.212121194,4345.81818138,3226.90909059,4271.12121169,3301.09090876,5141.2121207,2806.54545426,4103.69696929,511.030302979,4402.48484804,4154.18181777,4563.72727227,3972.84848445,4894.96969648,3709.09090872,4514.27272682,0.0,42.0,42.0,?
2017-08-07 12:14:44.695055,4506.54545409,3981.09090869,4086.69696929,4051.15151475,3699.81818145,593.454545395,3762.15151478,708.848484778,4320.57575714,461.57575753,4609.57575711,177.212121194,4340.15151472,3226.90909059,4271.12121169,3301.09090876,5132.96969646,2806.54545426,4096.99999959,511.030302979,4396.30302986,4154.18181777,4549.81818136,3972.84848445,4886.72727224,3709.09090872,4507.57575713,0.0,42.0,42.0,?
2017-08-07 12:14:44.702518,4497.78787834,3981.09090869,4083.09090868,4051.15151475,3697.75757539,593.454545395,3756.99999962,708.848484778,4314.90909048,461.57575753,4605.96969651,177.212121194,4332.93939351,3226.90909059,4266.99999957,3301.09090876,5135.54545403,2806.54545426,4089.27272686,511.030302979,4381.36363593,4154.18181777,4544.1515147,3976.96969657,4870.24242376,3709.09090872,4499.33333288,0.0,42.0,42.0,?
2017-08-07 12:14:44.709949,4497.78787834,3981.09090869,4082.57575717,4051.15151475,3692.09090872,593.454545395,3758.54545417,708.848484778,4323.66666623,461.57575753,4612.66666621,177.212121194,4331.39393896,3226.90909059,4260.30302988,3301.09090876,5137.60606009,2806.54545426,4086.69696929,511.030302979,4381.87878744,4154.18181777,4550.84848439,3976.96969657,4869.21212073,3709.09090872,4498.30302985,0.0,42.0,42.0,?
2017-08-07 12:14:44.718723,4500.87878743,3981.09090869,4084.12121171,4051.15151475,3688.48484812,593.454545395,3759.06060568,708.848484778,4323.66666623,461.57575753,4613.69696924,177.212121194,4333.45454502,3226.90909059,4260.81818139,3301.09090876,5131.42424191,2806.54545426,4085.66666626,511.030302979,4385.99999956,4154.18181777,4551.87878742,3976.96969657,4877.45454497,3709.09090872,4499.8484844,0.0,42.0,42.0,?
2017-08-07 12:14:44.726489,4499.33333288,3981.09090869,4085.66666626,4051.15151475,3688.48484812,593.454545395,3752.36363599,708.848484778,4306.15151472,461.57575753,4604.42424196,177.212121194,4332.42424199,3226.90909059,4258.24242382,3301.09090876,5122.66666615,2806.54545426,4079.48484808,511.030302979,4382.90909047,4154.18181777,4541.57575712,3976.96969657,4880.03030254,3709.09090872,4497.27272682,0.0,42.0,42.0,?
2017-08-07 12:14:44.734042,4489.03030258,3981.09090869,4077.42424202,4051.15151475,3682.81818145,593.454545395,3741.54545417,708.848484778,4295.84848442,461.57575753,4590.51515106,177.212121194,4327.27272684,3226.90909059,4253.09090867,3301.09090876,5114.93939343,2806.54545426,4071.24242384,511.030302979,4376.21212077,4154.18181777,4531.27272682,3976.96969657,4870.75757527,3709.09090872,4492.12121167,0.0,42.0,42.0,?
2017-08-07 12:14:44.741323,4475.12121167,3981.09090869,4064.03030262,4051.15151475,3667.87878751,593.454545395,3732.78787841,708.848484778,4293.78787836,461.57575753,4579.69696924,177.212121194,4312.3333329,3226.90909059,4245.36363594,3301.09090876,5108.24242373,2806.54545426,4059.39393899,511.030302979,4358.18181775,4154.18181777,4522.51515106,3976.96969657,4850.66666618,3709.09090872,4482.8484844,0.0,42.0,42.0,?
2017-08-07 12:14:44.751028,4464.30302986,3981.09090869,4054.24242384,4051.15151475,3657.57575721,593.454545395,3722.99999963,708.848484778,4287.09090866,461.57575753,4576.09090863,177.212121194,4298.42424199,3226.90909059,4236.60606018,3301.09090876,5102.57575707,2806.54545426,4049.09090869,511.030302979,4337.57575714,4154.18181777,4509.12121167,3976.96969657,4831.09090861,3709.09090872,4466.36363592,0.0,42.0,42.0,?
2017-08-07 12:14:44.759939,4455.03030258,3981.09090869,4043.93939353,4051.15151475,3651.39393903,593.454545395,3711.15151478,708.848484778,4283.99999957,461.57575753,4579.18181772,177.212121194,4299.96969654,3226.90909059,4232.48484806,3301.09090876,5093.30302979,2806.54545426,4041.87878747,511.030302979,4331.90909048,4154.18181777,4497.78787834,3976.96969657,4823.8787874,3709.09090872,4452.45454501,0.0,42.0,42.0,?
2017-08-07 12:14:44.765365,4448.8484844,3981.09090869,4032.6060602,4051.15151475,3643.15151479,593.454545395,3701.87878751,708.848484778,4280.90909048,461.57575753,4577.12121166,177.212121194,4301.51515109,3226.90909059,4231.96969655,3301.09090876,5086.09090858,2806.54545426,4034.15151475,511.030302979,4328.30302987,4154.18181777,4492.63636319,3976.96969657,4820.78787831,3709.09090872,4447.30302986,0.0,42.0,42.0,?
2017-08-07 12:14:44.776257,4443.18181774,3981.09090869,4027.45454505,4051.15151475,3635.42424206,593.454545395,3695.18181781,708.848484778,4268.0303026,461.57575753,4566.30302985,177.212121194,4291.21212078,3226.90909059,4228.36363594,3301.09090876,5086.6060601,2806.54545426,4030.54545414,511.030302979,4320.06060563,4154.18181777,4491.60606016,3976.96969657,4815.12121164,3709.09090872,4442.15151471,0.0,42.0,42.0,?
2017-08-07 12:14:44.780703,4433.39393895,3981.09090869,4020.24242384,4051.15151475,3627.18181782,593.454545395,3686.93939357,708.848484778,4255.15151473,461.57575753,4556.51515106,177.212121194,4282.96969654,3226.90909059,4220.63636321,3301.09090876,5085.06060555,2806.54545426,4030.54545414,511.030302979,4314.90909048,4154.18181777,4485.42424198,3976.96969657,4805.84848437,3709.09090872,4430.81818138,0.0,42.0,42.0,?
2017-08-07 12:14:44.789149,4422.57575713,3981.09090869,4002.21212081,4051.15151475,3616.363636,593.454545395,3673.54545418,708.848484778,4247.424242,461.57575753,4549.81818136,177.212121194,4277.81818139,3226.90909059,4207.24242382,3301.09090876,5072.18181767,2806.54545426,4017.15151475,511.030302979,4308.7272723,4154.18181777,4469.96969652,3976.96969657,4794.51515104,3709.09090872,4419.48484804,0.0,42.0,42.0,?
2017-08-07 12:14:44.798212,4412.27272683,3981.09090869,3986.24242384,4051.15151475,3602.45454509,593.454545395,3654.48484812,708.848484778,4231.45454503,461.57575753,4534.87878743,177.212121194,4261.33333291,3226.90909059,4188.18181776,3301.09090876,5053.12121162,2806.54545426,3993.45454506,511.030302979,4294.81818139,4154.18181777,4450.39393895,3976.96969657,4786.78787831,3709.09090872,4408.66666623,0.0,42.0,42.0,?
2017-08-07 12:14:44.804630,4388.06060562,3981.09090869,3969.24242385,4051.15151475,3581.84848449,593.454545395,3629.24242388,708.848484778,4208.27272685,461.57575753,4509.63636319,177.212121194,4235.06060564,3226.90909059,4169.1212117,3301.09090876,5035.09090859,2806.54545426,3973.87878748,511.030302979,4270.09090866,4154.18181777,4431.33333289,3976.96969657,4764.63636316,3709.09090872,4389.60606017,0.0,42.0,42.0,?
2017-08-07 12:14:44.814004,4357.15151472,3981.09090869,3940.90909052,4051.15151475,3555.57575722,593.454545395,3601.42424206,708.848484778,4186.63636322,461.57575753,4484.90909046,177.212121194,4214.45454503,3226.90909059,4148.5151511,3301.09090876,5016.54545404,2806.54545426,3957.90909051,511.030302979,4240.7272723,4154.18181777,4413.30302986,3976.96969657,4728.5757571,3709.09090872,4360.24242381,0.0,42.0,42.0,?
2017-08-07 12:14:44.819995,4329.3333329,3981.09090869,3905.87878749,4051.15151475,3525.18181783,593.454545395,3566.90909055,708.848484778,4158.30302989,461.57575753,4463.27272683,177.212121194,4190.24242382,3226.90909059,4117.09090868,3301.09090876,4988.21212071,2806.54545426,3929.57575718,511.030302979,4209.30302988,4154.18181777,4384.45454502,3976.96969657,4699.72727226,3709.09090872,4325.72727229,0.0,42.0,42.0,?
2017-08-07 12:14:44.828701,4294.30302987,3981.09090869,3871.87878749,4051.15151475,3488.60606026,593.454545395,3523.12121177,708.848484778,4120.18181777,461.57575753,4433.90909047,177.212121194,4154.18181777,3226.90909059,4080.51515111,3301.09090876,4946.48484799,2806.54545426,3882.69696931,511.030302979,4171.18181776,4154.18181777,4340.66666623,3976.96969657,4669.33333287,3709.09090872,4286.57575715,0.0,42.0,42.0,?
2017-08-07 12:14:44.835043,4245.36363594,3981.09090869,3823.45454507,4051.15151475,3439.15151481,593.454545395,3464.90909056,708.848484778,4071.24242384,461.57575753,4384.45454502,177.212121194,4116.06060565,3226.90909059,4035.18181778,3301.09090876,4897.03030254,2806.54545426,3828.60606022,511.030302979,4121.72727232,4154.18181777,4283.48484806,3976.96969657,4617.81818136,3709.09090872,4236.09090867,0.0,42.0,42.0,?
2017-08-07 12:14:44.842949,4162.93939352,3981.09090869,3734.84848448,4051.15151475,3352.09090876,593.454545395,3361.36363603,708.848484778,3988.81818142,461.57575753,4306.15151472,177.212121194,4057.84848444,3226.90909059,3958.93939354,3301.09090876,4815.12121164,2806.54545426,3747.72727235,511.030302979,4037.24242384,4154.18181777,4188.69696928,3976.96969657,4531.27272682,3709.09090872,4146.45454504,0.0,42.0,42.0,?
2017-08-07 12:14:44.851631,4062.48484808,3981.09090869,3634.39393903,4051.15151475,3249.57575725,593.454545395,3242.36363604,708.848484778,3891.45454507,461.57575753,4220.1212117,177.212121194,3977.48484809,3226.90909059,3865.69696931,3301.09090876,4707.45454498,2806.54545426,3646.75757539,511.030302979,3930.60606021,4154.18181777,4065.57575717,3976.96969657,4429.78787834,3709.09090872,4039.3030299,0.0,42.0,42.0,?
2017-08-07 12:14:44.859174,3930.0909087,3981.09090869,3504.57575723,4051.15151475,3113.06060575,593.454545395,3085.75757545,708.848484778,3759.5757572,461.57575753,4090.30302989,177.212121194,3858.99999961,3226.90909059,3739.99999963,3301.09090876,4568.87878742,2806.54545426,3511.27272692,511.030302979,3792.54545417,4154.18181777,3911.03030264,3976.96969657,4293.27272684,3709.09090872,3903.30302991,0.0,42.0,42.0,?
2017-08-07 12:14:44.875366,3277.90909058,3981.09090869,2839.51515123,4051.15151475,2810.15151487,593.454545395,2730.81818155,708.848484778,3115.12121181,461.57575753,3806.45454507,177.212121194,3604.51515115,3226.90909059,3463.87878753,3301.09090876,4286.06060563,2806.54545426,3220.72727241,511.030302979,3498.90909056,4154.18181777,3203.21212089,3976.96969657,3997.06060566,3709.09090872,3605.54545418,0.0,42.0,42.0,?
2017-08-07 12:14:44.877176,3103.78787848,3981.09090869,2666.42424216,4051.15151475,2426.87878764,593.454545395,2289.84848462,708.848484778,2952.33333304,461.57575753,3475.72727238,177.212121194,3293.36363603,3226.90909059,3103.78787848,3301.09090876,3731.24242387,2806.54545426,2846.21212093,511.030302979,3115.63636332,4154.18181777,2985.81818152,3976.96969657,3615.33333297,3709.09090872,3219.18181786,0.0,42.0,42.0,?
2017-08-07 12:14:44.886737,3103.78787848,3981.09090869,2666.42424216,4051.15151475,2246.57575735,593.454545395,2097.18181797,708.848484778,2952.33333304,461.57575753,3337.66666633,177.212121194,3154.78787847,3226.90909059,2920.90909062,3301.09090876,3731.24242387,2806.54545426,2655.09090883,511.030302979,2920.3939391,4154.18181777,2985.81818152,3976.96969657,3422.66666632,3709.09090872,3025.9999997,0.0,42.0,42.0,?
2017-08-07 12:14:44.902176,3123.36363605,3981.09090869,2687.54545428,4051.15151475,2267.18181796,593.454545395,2129.12121191,708.848484778,2968.30303001,461.57575753,3357.24242391,177.212121194,3169.72727241,3226.90909059,2926.57575728,3301.09090876,3724.03030266,2806.54545426,2660.75757549,511.030302979,2923.48484819,4154.18181777,2975.51515122,3976.96969657,3427.30302996,3709.09090872,3036.81818151,0.0,42.0,42.0,?
2017-08-07 12:14:44.909231,3135.2121209,3981.09090869,2700.42424215,4051.15151475,2281.09090886,593.454545395,2141.48484827,708.848484778,2973.45454516,461.57575753,3358.27272694,177.212121194,3169.72727241,3226.90909059,2932.75757546,3301.09090876,3720.93939357,2806.54545426,2666.93939367,511.030302979,2928.63636334,4154.18181777,2972.93939364,3976.96969657,3435.03030269,3709.09090872,3048.15151485,0.0,42.0,42.0,?
2017-08-07 12:14:44.913037,3130.06060575,3981.09090869,2696.30303003,4051.15151475,2275.93939371,593.454545395,2138.9090907,708.848484778,2960.57575728,461.57575753,3346.9393936,177.212121194,3156.84848453,3226.90909059,2922.45454516,3301.09090876,3712.69696933,2806.54545426,2657.6666664,511.030302979,2927.0909088,4154.18181777,2961.09090879,3976.96969657,3433.99999966,3709.09090872,3044.03030273,0.0,42.0,42.0,?
2017-08-07 12:14:44.918956,3159.42424211,3981.09090869,2727.72727245,4051.15151475,2308.39393916,593.454545395,2180.1212119,708.848484778,2983.24242394,461.57575753,3371.66666633,177.212121194,3172.8181815,3226.90909059,2945.12121183,3301.09090876,3744.12121175,2806.54545426,2691.15151488,511.030302979,2962.12121183,4154.18181777,2995.09090879,3976.96969657,3467.48484814,3709.09090872,3072.36363606,0.0,42.0,42.0,?
2017-08-07 12:14:44.924152,3183.1212118,3981.09090869,2751.42424215,4051.15151475,2334.15151492,593.454545395,2207.4242422,708.848484778,3003.84848455,461.57575753,3394.33333299,177.212121194,3192.90909059,3226.90909059,2967.78787849,3301.09090876,3767.81818144,2806.54545426,2717.93939367,511.030302979,2984.78787849,4154.18181777,3024.96969667,3976.96969657,3489.63636329,3709.09090872,3093.99999969,0.0,42.0,42.0,?
2017-08-07 12:14:44.933258,3199.60606029,3981.09090869,2765.84848457,4051.15151475,2349.60606037,593.454545395,2224.93939372,708.848484778,3019.30303,461.57575753,3412.87878754,177.212121194,3219.18181786,3226.90909059,2990.45454516,3301.09090876,3782.24242386,2806.54545426,2728.75757548,511.030302979,2995.60606031,4154.18181777,3039.90909061,3976.96969657,3502.51515116,3709.09090872,3109.45454514,0.0,42.0,42.0,?
2017-08-07 12:14:44.942597,3219.69696938,3981.09090869,2784.90909063,4051.15151475,2366.09090885,593.454545395,2245.03030281,708.848484778,3059.48484818,461.57575753,3433.99999966,177.212121194,3242.36363604,3226.90909059,3015.6969694,3301.09090876,3805.42424204,2806.54545426,2743.69696942,511.030302979,3015.18181788,4154.18181777,3067.21212091,3976.96969657,3520.03030268,3709.09090872,3125.93939363,0.0,42.0,42.0,?
2017-08-07 12:14:44.945783,3219.69696938,3981.09090869,2797.78787851,4051.15151475,2380.51515128,593.454545395,2258.93939371,708.848484778,3059.48484818,461.57575753,3449.45454511,177.212121194,3251.1212118,3226.90909059,3031.66666636,3301.09090876,3825.51515113,2806.54545426,2757.09090882,511.030302979,3025.48484818,4154.18181777,3067.21212091,3976.96969657,3525.69696934,3709.09090872,3135.2121209,0.0,42.0,42.0,?
2017-08-07 12:14:44.963336,3225.36363604,3981.09090869,2806.03030275,4051.15151475,2399.57575734,593.454545395,2275.4242422,708.848484778,3073.9090906,461.57575753,3452.5454542,177.212121194,3252.15151483,3226.90909059,3039.90909061,3301.09090876,3834.27272689,2806.54545426,2767.39393912,511.030302979,3025.48484818,4154.18181777,3085.24242393,3976.96969657,3527.24242389,3709.09090872,3142.93939363,0.0,42.0,42.0,?
2017-08-07 12:14:44.967065,3238.75757543,3981.09090869,2815.30303002,4051.15151475,2411.9393937,593.454545395,2289.3333331,708.848484778,3077.51515121,461.57575753,3445.8484845,177.212121194,3250.09090877,3226.90909059,3042.48484818,3301.09090876,3840.96969659,2806.54545426,2778.72727245,511.030302979,3032.18181788,4154.18181777,3098.63636333,3976.96969657,3537.03030268,3709.09090872,3158.39393908,0.0,42.0,42.0,?
2017-08-07 12:14:44.970355,3255.75757543,3981.09090869,2832.81818153,4051.15151475,2420.18181794,593.454545395,2302.7272725,708.848484778,3083.18181787,461.57575753,3452.5454542,177.212121194,3255.75757543,3226.90909059,3054.84848454,3301.09090876,3860.54545416,2806.54545426,2797.78787851,511.030302979,3055.36363606,4154.18181777,3112.03030272,3976.96969657,3561.24242389,3709.09090872,3180.54545423,0.0,42.0,42.0,?
2017-08-07 12:14:44.978776,3266.06060573,3981.09090869,2846.72727244,4051.15151475,2434.60606036,593.454545395,2317.66666643,708.848484778,3095.54545424,461.57575753,3469.03030268,177.212121194,3267.60606028,3226.90909059,3073.39393909,3301.09090876,3878.06060567,2806.54545426,2810.66666639,511.030302979,3073.9090906,4154.18181777,3130.57575726,3976.96969657,3577.21212085,3709.09090872,3194.96969665,0.0,42.0,42.0,?
2017-08-07 12:14:44.984338,3272.24242392,3981.09090869,2850.84848456,4051.15151475,2448.51515127,593.454545395,2332.09090886,708.848484778,3105.33333302,461.57575753,3477.78787844,177.212121194,3272.75757543,3226.90909059,3078.54545424,3301.09090876,3884.75757537,2806.54545426,2813.24242396,511.030302979,3079.57575727,4154.18181777,3137.78787847,3976.96969657,3579.27272691,3709.09090872,3198.57575726,0.0,42.0,42.0,?
2017-08-07 12:14:44.992376,3282.54545422,3981.09090869,2858.06060577,4051.15151475,2455.72727248,593.454545395,2345.99999977,708.848484778,3112.54545423,461.57575753,3485.51515117,177.212121194,3274.81818149,3226.90909059,3081.12121181,3301.09090876,3895.57575719,2806.54545426,2819.42424214,511.030302979,3089.87878757,4154.18181777,3138.30302999,3976.96969657,3586.48484813,3709.09090872,3207.84848453,0.0,42.0,42.0,?
2017-08-07 12:14:44.999913,3295.93939361,3981.09090869,2873.51515123,4051.15151475,2465.51515127,593.454545395,2357.3333331,708.848484778,3119.24242393,461.57575753,3495.30302995,177.212121194,3284.09090876,3226.90909059,3093.99999969,3301.09090876,3912.06060567,2806.54545426,2831.27272699,511.030302979,3103.78787848,4154.18181777,3156.33333302,3976.96969657,3598.33333297,3709.09090872,3225.36363604,0.0,42.0,42.0,?
2017-08-07 12:14:45.007566,3305.21212088,3981.09090869,2885.87878759,4051.15151475,2478.90909066,593.454545395,2369.18181794,708.848484778,3124.39393908,461.57575753,3495.30302995,177.212121194,3294.39393906,3226.90909059,3105.33333302,3301.09090876,3922.87878749,2806.54545426,2843.12121184,511.030302979,3113.57575726,4154.18181777,3177.96969665,3976.96969657,3608.12121176,3709.09090872,3233.09090877,0.0,42.0,42.0,?
2017-08-07 12:14:45.015976,3312.42424209,3981.09090869,2893.60606032,4051.15151475,2489.72727248,593.454545395,2383.60606037,708.848484778,3130.57575726,461.57575753,3492.21212086,177.212121194,3296.45454512,3226.90909059,3114.09090878,3301.09090876,3935.24242385,2806.54545426,2854.45454517,511.030302979,3129.03030272,4154.18181777,3189.30302998,3976.96969657,3624.60606024,3709.09090872,3241.84848452,0.0,42.0,42.0,?
2017-08-07 12:14:45.027681,3324.27272694,3981.09090869,2903.90909062,4051.15151475,2502.09090884,593.454545395,2400.09090885,708.848484778,3141.90909059,461.57575753,3507.1515148,177.212121194,3303.66666634,3226.90909059,3127.48484817,3301.09090876,3951.72727233,2806.54545426,2867.84848456,511.030302979,3148.09090878,4154.18181777,3206.30302998,3976.96969657,3644.18181782,3709.09090872,3260.90909058,0.0,42.0,42.0,?
2017-08-07 12:14:45.031634,3335.09090876,3981.09090869,2912.66666638,4051.15151475,2509.81818157,593.454545395,2413.48484824,708.848484778,3161.48484817,461.57575753,3530.8484845,177.212121194,3323.75757543,3226.90909059,3141.90909059,3301.09090876,3965.63636324,2806.54545426,2881.24242395,511.030302979,3156.84848453,4154.18181777,3222.78787847,3976.96969657,3651.90909054,3709.09090872,3269.15151482,0.0,42.0,42.0,?
2017-08-07 12:14:45.049437,3352.60606027,3981.09090869,2933.78787849,4051.15151475,2532.48484823,593.454545395,2439.75757551,708.848484778,3200.63636332,461.57575753,3545.27272692,177.212121194,3347.45454512,3226.90909059,3166.63636332,3301.09090876,3998.60606021,2806.54545426,2889.4848482,511.030302979,3173.33333302,4154.18181777,3239.27272695,3976.96969657,3663.75757539,3709.09090872,3269.66666634,0.0,42.0,42.0,?
2017-08-07 12:14:45.054266,3363.9393936,3981.09090869,2943.06060577,4051.15151475,2546.90909065,593.454545395,2453.15151491,708.848484778,3210.4242421,461.57575753,3575.15151479,177.212121194,3360.333333,3226.90909059,3190.33333301,3301.09090876,4023.33333293,2806.54545426,2902.36363607,511.030302979,3193.4242421,4154.18181777,3267.60606028,3976.96969657,3678.69696933,3709.09090872,3298.51515119,0.0,42.0,42.0,?
2017-08-07 12:14:45.064005,3363.9393936,3981.09090869,2943.06060577,4051.15151475,2546.90909065,593.454545395,2453.15151491,708.848484778,3210.4242421,461.57575753,3575.15151479,177.212121194,3360.333333,3226.90909059,3190.33333301,3301.09090876,4023.33333293,2806.54545426,2902.36363607,511.030302979,3193.4242421,4154.18181777,3267.60606028,3976.96969657,3678.69696933,3709.09090872,3298.51515119,0.0,42.0,42.0,?
2017-08-07 12:14:45.073032,3372.69696936,3981.09090869,2949.24242395,4051.15151475,2558.24242399,593.454545395,2467.06060581,708.848484778,3218.66666634,461.57575753,3580.30302995,177.212121194,3366.51515118,3226.90909059,3202.69696938,3301.09090876,4031.06060566,2806.54545426,2920.90909062,511.030302979,3206.8181815,4154.18181777,3283.06060573,3976.96969657,3695.18181781,3709.09090872,3310.36363603,0.0,42.0,42.0,?
2017-08-07 12:14:45.077016,3381.45454512,3981.09090869,2961.09090879,4051.15151475,2568.03030277,593.454545395,2477.87878763,708.848484778,3211.45454513,461.57575753,3564.84848449,177.212121194,3356.72727239,3226.90909059,3197.03030271,3301.09090876,4033.63636323,2806.54545426,2936.87878759,511.030302979,3216.60606028,4154.18181777,3285.63636331,3976.96969657,3705.99999963,3709.09090872,3324.78787846,0.0,42.0,42.0,?
2017-08-07 12:14:45.080402,3386.09090875,3981.09090869,2970.87878758,4051.15151475,2573.18181792,593.454545395,2482.51515127,708.848484778,3198.06060574,461.57575753,3544.7575754,177.212121194,3348.99999967,3226.90909059,3197.54545423,3301.09090876,4045.48484808,2806.54545426,2948.21212092,511.030302979,3228.45454513,4154.18181777,3294.90909058,3976.96969657,3712.18181781,3709.09090872,3332.51515118,0.0,42.0,42.0,?
2017-08-07 12:14:45.087040,3398.45454511,12.3636363624,2984.78787849,4051.15151475,2587.09090883,593.454545395,2496.42424217,708.848484778,3211.45454513,461.57575753,3558.1515148,177.212121194,3363.9393936,3226.90909059,3217.63636331,3301.09090876,4066.6060602,2806.54545426,2960.57575728,511.030302979,3248.03030271,4154.18181777,3314.48484815,3976.96969657,3730.21212084,3709.09090872,3345.90909057,0.0,42.0,42.0,?
2017-08-07 12:14:45.096043,3416.99999966,12.3636363624,2999.72727243,4191.27272685,2605.63636338,593.454545395,2514.96969672,708.848484778,3234.1212118,461.57575753,3583.90909055,177.212121194,3381.96969663,3226.90909059,3232.57575725,3301.09090876,4079.48484808,2806.54545426,2966.75757546,511.030302979,3262.96969664,4154.18181777,3327.87878755,3976.96969657,3748.24242387,3709.09090872,3362.39393906,0.0,42.0,42.0,?
2017-08-07 12:14:45.111433,3411.84848451,12.3636363624,2995.09090879,4191.27272685,2603.0606058,593.454545395,2512.90909066,708.848484778,3236.18181786,461.57575753,3586.48484813,177.212121194,3376.30302997,3226.90909059,3222.78787847,3301.09090876,4071.24242384,2806.54545426,2954.90909061,511.030302979,3250.60606028,4154.18181777,3320.66666633,3976.96969657,3738.45454508,3709.09090872,3355.18181785,354.424242389,42.0,42.0,?
2017-08-07 12:14:45.117105,3459.2424239,12.3636363624,3045.57575727,4191.27272685,2656.63636337,712.969696898,2578.33333308,708.848484778,3301.09090876,461.57575753,3649.84848448,177.212121194,3417.51515117,3226.90909059,3271.21212088,3301.09090876,4118.12121171,2806.54545426,3008.48484818,511.030302979,3299.0303027,4154.18181777,3373.21212087,3976.96969657,3782.75757538,3709.09090872,3403.09090875,354.424242389,42.0,42.0,?
2017-08-07 12:14:45.128713,3622.03030267,12.3636363624,3209.39393907,4191.27272685,2830.24242396,712.969696898,2777.1818179,906.666666576,3470.57575723,461.57575753,3814.1818178,177.212121194,3556.60606025,3226.90909059,3435.03030269,3301.09090876,4280.90909048,2806.54545426,3186.72727241,511.030302979,3472.12121177,4154.18181777,3544.7575754,3976.96969657,3952.75757536,3709.09090872,3575.15151479,354.424242389,42.0,42.0,?
2017-08-07 12:14:45.135763,3775.54545417,12.3636363624,3363.42424209,4191.27272685,2991.48484819,712.969696898,2956.96969667,906.666666576,3610.18181782,704.727272657,3939.36363597,177.212121194,3683.84848448,3226.90909059,3584.93939358,3301.09090876,4441.12121168,2806.54545426,3351.06060573,511.030302979,3634.90909055,4154.18181777,3713.72727236,3976.96969657,4120.18181777,3709.09090872,3739.48484811,354.424242389,42.0,42.0,?
2017-08-07 12:14:45.141112,3849.21212083,12.3636363624,3443.78787844,4191.27272685,3076.48484818,712.969696898,3012.6060603,906.666666576,3680.24242387,704.727272657,3966.15151475,506.909090858,3724.54545417,3226.90909059,3638.51515115,3301.09090876,4545.18181773,2806.54545426,3404.6363633,511.030302979,3691.57575721,4154.18181777,3829.12121174,3976.96969657,4177.87878746,3709.09090872,3794.60606023,354.424242389,42.0,42.0,?
2017-08-07 12:14:45.144798,3901.24242385,12.3636363624,3443.78787844,4191.27272685,3076.48484818,712.969696898,3046.6060603,906.666666576,3727.63636326,704.727272657,3990.87878748,506.909090858,3758.54545417,3375.27272694,3681.2727269,3301.09090876,4545.18181773,2806.54545426,3440.18181784,511.030302979,3729.69696932,4154.18181777,3887.84848446,3976.96969657,4208.27272685,3709.09090872,3826.03030265,354.424242389,42.0,42.0,?
2017-08-07 12:14:45.148210,3901.24242385,12.3636363624,3490.66666632,4191.27272685,3130.06060575,712.969696898,3108.93939363,906.666666576,3727.63636326,704.727272657,4038.27272687,506.909090858,3811.60606022,3375.27272694,3741.54545417,3540.12121177,4603.90909045,2806.54545426,3497.36363601,511.030302979,3782.24242386,4154.18181777,3887.84848446,3976.96969657,4262.36363594,3709.09090872,3878.06060567,354.424242389,42.0,42.0,?
2017-08-07 12:14:45.156380,3930.60606021,12.3636363624,3523.12121177,4191.27272685,3161.48484817,712.969696898,3146.03030272,906.666666576,3755.96969659,704.727272657,4064.54545414,506.909090858,3833.24242386,3375.27272694,3768.33333296,3540.12121177,4632.75757529,3090.9090906,3523.12121177,511.030302979,3809.54545416,4154.18181777,3920.30302991,3976.96969657,4297.39393896,3709.09090872,3908.96969658,354.424242389,42.0,42.0,?
2017-08-07 12:14:45.168187,3952.24242385,12.3636363624,3549.39393904,4191.27272685,3183.63636332,712.969696898,3172.30302999,906.666666576,3778.63636326,704.727272657,4084.63636323,506.909090858,3840.45454507,3375.27272694,3786.36363599,3540.12121177,4657.99999953,3090.9090906,3539.09090874,614.060605999,3835.30302992,4154.18181777,3944.51515112,3976.96969657,4319.0303026,3709.09090872,3932.66666627,354.424242389,42.0,42.0,?
2017-08-07 12:14:45.177169,3994.9999996,12.3636363624,3594.21212085,4191.27272685,3236.69696937,712.969696898,3226.90909059,906.666666576,3836.33333295,704.727272657,4111.93939353,506.909090858,3859.51515113,3375.27272694,3837.36363598,3540.12121177,4713.63636317,3090.9090906,3595.7575754,614.060605999,3881.66666628,90.6666666576,4006.84848445,3976.96969657,4361.78787835,3709.09090872,3965.12121172,354.424242389,42.0,42.0,?
2017-08-07 12:14:45.180814,3994.9999996,12.3636363624,3594.21212085,4191.27272685,3236.69696937,712.969696898,3226.90909059,906.666666576,3836.33333295,704.727272657,4136.66666625,506.909090858,3879.0909087,3375.27272694,3837.36363598,3540.12121177,4713.63636317,3090.9090906,3595.7575754,614.060605999,3881.66666628,90.6666666576,4006.84848445,4211.87878746,4361.78787835,3709.09090872,3984.6969693,354.424242389,42.0,42.0,?
2017-08-07 12:14:45.188025,4016.12121172,12.3636363624,3618.93939358,4191.27272685,3254.21212089,712.969696898,3255.24242392,906.666666576,3860.03030264,704.727272657,4164.48484807,506.909090858,3899.18181779,3375.27272694,3853.84848446,3540.12121177,4735.2727268,3090.9090906,3617.39393903,614.060605999,3903.81818143,90.6666666576,4030.54545414,4211.87878746,4382.90909047,4005.81818142,4002.72727233,354.424242389,42.0,42.0,?
2017-08-07 12:14:45.196556,4049.09090869,12.3636363624,3644.18181782,4191.27272685,3279.45454513,712.969696898,3285.63636331,906.666666576,3882.69696931,704.727272657,4191.78787837,506.909090858,3921.33333294,3375.27272694,3883.21212082,3540.12121177,4775.45454498,3090.9090906,3648.81818145,614.060605999,3945.54545415,90.6666666576,4067.63636323,4211.87878746,4419.99999956,4005.81818142,4032.09090869,354.424242389,42.0,42.0,?
2017-08-07 12:14:45.205802,4069.18181777,12.3636363624,3662.72727236,4191.27272685,3303.66666634,712.969696898,3305.7272724,906.666666576,3904.84848446,704.727272657,4210.33333291,506.909090858,3944.51515112,3375.27272694,3913.0909087,3540.12121177,4805.84848437,3090.9090906,3677.15151478,614.060605999,3975.93939354,86.5454545368,4092.87878747,4211.87878746,4449.36363592,4005.81818142,4059.39393899,354.424242389,42.0,42.0,?
2017-08-07 12:14:45.211227,4082.06060565,12.3636363624,3681.78787842,4191.27272685,3323.24242391,712.969696898,3327.87878755,906.666666576,3924.93939355,704.727272657,4224.75757534,506.909090858,3969.75757536,3375.27272694,3934.72727233,3540.12121177,4817.69696922,3090.9090906,3694.15151478,614.060605999,3991.39393899,86.5454545368,4100.6060602,4211.87878746,4469.45454501,4005.81818142,4081.03030262,354.424242389,42.0,42.0,?
2017-08-07 12:14:45.221111,4104.72727232,12.3636363624,3704.45454508,4191.27272685,3347.45454512,712.969696898,3355.69696936,906.666666576,3946.57575718,704.727272657,4243.81818139,506.909090858,3988.81818142,3375.27272694,3957.90909051,3540.12121177,4837.7878783,3090.9090906,3712.18181781,614.060605999,4013.03030263,86.5454545368,4119.66666625,4211.87878746,4495.21212076,4005.81818142,4103.69696929,354.424242389,42.0,42.0,?
2017-08-07 12:14:45.226112,4121.72727232,12.3636363624,3724.03030266,4191.27272685,3372.18181784,712.969696898,3376.30302997,906.666666576,3966.66666627,704.727272657,4264.424242,506.909090858,3996.54545415,3375.27272694,3975.42424203,3540.12121177,4862.51515103,3090.9090906,3732.2727269,614.060605999,4030.03030263,86.5454545368,4147.48484807,4211.87878746,4511.18181773,4005.81818142,4123.27272686,354.424242389,42.0,42.0,?
2017-08-07 12:14:45.234077,4128.93939353,12.3636363624,3739.48484811,4191.27272685,3389.18181784,712.969696898,3390.21212087,906.666666576,3979.03030263,704.727272657,4280.39393897,506.909090858,4005.3030299,3375.27272694,3981.09090869,3540.12121177,4875.90909042,3090.9090906,3745.15151478,614.060605999,4035.69696929,86.5454545368,4159.84848443,4211.87878746,4511.69696925,4005.81818142,4137.69696928,354.424242389,42.0,42.0,?
2017-08-07 12:14:45.243059,4146.96969656,12.3636363624,3758.03030265,4191.27272685,3408.75757542,712.969696898,3411.33333299,906.666666576,3991.90909051,704.727272657,4292.75757533,506.909090858,4020.75757536,3375.27272694,3994.9999996,3540.12121177,4886.21212072,3090.9090906,3757.51515114,614.060605999,4050.12121172,86.5454545368,4174.27272686,4211.87878746,4524.57575712,4005.81818142,4154.18181777,354.424242389,42.0,42.0,?
2017-08-07 12:14:45.250824,4172.21212079,12.3636363624,3777.09090871,4191.27272685,3431.9393936,712.969696898,3435.03030269,906.666666576,4007.87878748,704.727272657,4302.54545412,506.909090858,4032.09090869,3375.27272694,4016.12121172,3540.12121177,4900.63636315,3090.9090906,3776.06060568,614.060605999,4077.42424202,86.5454545368,4196.93939352,4211.87878746,4554.96969651,4005.81818142,4170.66666625,354.424242389,42.0,42.0,?
2017-08-07 12:14:45.258886,4186.63636322,12.3636363624,3789.96969659,4191.27272685,3448.93939359,712.969696898,3452.03030269,906.666666576,4016.63636323,704.727272657,4310.78787836,506.909090858,4034.15151475,3375.27272694,4025.39393899,3540.12121177,4911.45454496,3090.9090906,3792.54545417,614.060605999,4099.57575717,86.5454545368,4209.30302988,4211.87878746,4578.66666621,4005.81818142,4184.06060564,354.424242389,42.0,42.0,?
2017-08-07 12:14:45.266000,4195.39393897,12.3636363624,3797.69696932,4191.27272685,3458.72727238,712.969696898,3461.81818147,906.666666576,4024.36363596,704.727272657,4316.45454502,506.909090858,4036.21212081,3375.27272694,4026.93939354,3540.12121177,4920.21212072,3090.9090906,3804.90909053,614.060605999,4112.96969656,86.5454545368,4217.54545412,4211.87878746,4588.96969651,4005.81818142,4194.36363594,354.424242389,42.0,42.0,?
2017-08-07 12:14:45.276124,4206.72727231,12.3636363624,3807.99999962,4191.27272685,3469.5454542,712.969696898,3476.24242389,906.666666576,4039.3030299,704.727272657,4319.54545411,506.909090858,4044.96969657,3375.27272694,4039.81818141,3540.12121177,4934.63636314,3090.9090906,3818.81818144,614.060605999,4125.84848444,86.5454545368,4235.06060564,4211.87878746,4599.78787833,4005.81818142,4208.27272685,354.424242389,42.0,42.0,?
2017-08-07 12:14:45.280994,4221.66666624,12.3636363624,3823.45454507,4191.27272685,3484.48484814,712.969696898,3496.33333298,906.666666576,4051.15151475,704.727272657,4331.90909048,506.909090858,4061.96969656,3375.27272694,4059.9090905,3540.12121177,4949.06060557,3090.9090906,3833.75757537,614.060605999,4139.75757534,86.5454545368,4255.66666624,4211.87878746,4616.27272681,4005.81818142,4226.30302988,354.424242389,42.0,42.0,?
2017-08-07 12:14:45.290849,4236.09090867,12.3636363624,3840.96969659,4191.27272685,3503.5454542,712.969696898,3512.81818147,906.666666576,4061.45454505,704.727272657,4353.03030259,506.909090858,4076.9090905,3375.27272694,4072.78787838,3540.12121177,4959.36363587,3090.9090906,3843.54545416,614.060605999,4150.06060565,86.5454545368,4262.87878745,4211.87878746,4628.63636317,4005.81818142,4239.69696927,354.424242389,42.0,42.0,?
2017-08-07 12:14:45.298350,4246.90909048,12.3636363624,3855.90909052,4191.27272685,3518.99999965,712.969696898,3528.78787844,906.666666576,4075.87878747,704.727272657,4365.39393896,506.909090858,4085.15151474,3375.27272694,4081.03030262,3540.12121177,4970.6969692,3090.9090906,3850.24242386,614.060605999,4156.75757534,86.5454545368,4268.54545412,4211.87878746,4637.90909045,4005.81818142,4246.39393897,354.424242389,42.0,42.0,?
2017-08-07 12:14:45.305268,4257.7272723,12.3636363624,3869.30302992,4191.27272685,3528.78787844,712.969696898,3546.30302995,906.666666576,4090.30302989,704.727272657,4375.18181774,506.909090858,4098.03030262,3375.27272694,4098.03030262,3540.12121177,4988.21212071,3090.9090906,3863.12121173,614.060605999,4169.1212117,86.5454545368,4293.78787836,4211.87878746,4648.72727226,4005.81818142,4256.69696927,354.424242389,42.0,42.0,?
2017-08-07 12:14:45.312799,4271.63636321,12.3636363624,3885.27272688,4191.27272685,3546.81818146,712.969696898,3562.27272692,906.666666576,4107.30302989,704.727272657,4394.2424238,506.909090858,4116.57575716,3375.27272694,4117.60606019,3540.12121177,5007.78787829,3090.9090906,3882.69696931,614.060605999,4189.72727231,86.5454545368,4319.54545411,4211.87878746,4662.63636317,4005.81818142,4275.75757533,354.424242389,42.0,42.0,?
2017-08-07 12:14:45.319911,4283.99999957,12.3636363624,3896.60606022,4191.27272685,3563.30302995,712.969696898,3576.18181782,906.666666576,4119.66666625,704.727272657,4406.09090865,506.909090858,4124.30302989,3375.27272694,4124.81818141,3540.12121177,5019.12121162,3090.9090906,3897.63636325,614.060605999,4209.8181814,86.5454545368,4331.39393896,4211.87878746,4683.24242377,4005.81818142,4294.30302987,354.424242389,42.0,42.0,?
2017-08-07 12:14:45.329803,4291.21212078,12.3636363624,3905.36363597,4191.27272685,3573.09090873,712.969696898,3590.60606025,906.666666576,4126.36363595,704.727272657,4406.60606017,506.909090858,4125.33333292,3375.27272694,4129.96969656,3540.12121177,5028.90909041,3090.9090906,3909.48484809,614.060605999,4225.78787837,86.5454545368,4348.39393896,4211.87878746,4700.75757529,4005.81818142,4306.66666624,354.424242389,42.0,42.0,?
2017-08-07 12:14:45.336550,4304.09090866,12.3636363624,3920.81818143,4191.27272685,3586.99999964,712.969696898,3603.99999964,906.666666576,4140.78787837,704.727272657,4414.33333289,506.909090858,4136.66666625,3375.27272694,4150.57575716,3540.12121177,5045.9090904,3090.9090906,3923.393939,614.060605999,4239.69696927,86.5454545368,4371.06060562,4211.87878746,4708.48484801,4005.81818142,4317.99999957,354.424242389,42.0,42.0,?
2017-08-07 12:14:45.345005,4318.51515108,12.3636363624,3934.72727233,4191.27272685,3602.96969661,712.969696898,3617.90909055,906.666666576,4151.60606019,704.727272657,4425.66666622,506.909090858,4150.57575716,3375.27272694,4169.63636322,3540.12121177,5058.78787828,3090.9090906,3934.72727233,614.060605999,4251.03030261,86.5454545368,4380.3333329,4211.87878746,4717.24242377,4005.81818142,4331.39393896,354.424242389,42.0,42.0,?
2017-08-07 12:14:45.351675,4327.27272684,12.3636363624,3945.54545415,4191.27272685,3615.33333297,712.969696898,3632.84848449,906.666666576,4156.24242383,704.727272657,4434.9393935,506.909090858,4158.30302989,3375.27272694,4169.63636322,3540.12121177,5066.51515101,3090.9090906,3948.12121173,614.060605999,4257.21212079,86.5454545368,4390.12121168,4211.87878746,4731.66666619,4005.81818142,4343.24242381,354.424242389,42.0,42.0,?
2017-08-07 12:14:45.360506,4335.51515108,12.3636363624,3955.84848445,4191.27272685,3624.60606024,712.969696898,3643.15151479,906.666666576,4171.18181776,704.727272657,4449.87878743,506.909090858,4164.48484807,3375.27272694,4159.33333292,3540.12121177,5070.63636313,3090.9090906,3963.06060566,614.060605999,4263.90909048,86.5454545368,4404.03030259,4211.87878746,4740.42424195,4005.81818142,4350.96969653,354.424242389,42.0,42.0,?
2017-08-07 12:14:45.366963,4346.84848441,12.3636363624,3964.60606021,4191.27272685,3635.93939358,712.969696898,3654.99999963,906.666666576,4189.21212079,704.727272657,4464.30302986,506.909090858,4171.69696928,3375.27272694,4159.84848443,3540.12121177,5077.84848434,3090.9090906,3972.33333294,614.060605999,4274.21212078,86.5454545368,4412.78787835,4211.87878746,4749.69696922,4005.81818142,4360.24242381,354.424242389,42.0,42.0,?
2017-08-07 12:14:45.375147,4356.6363632,12.3636363624,3974.393939,4191.27272685,3650.363636,712.969696898,3669.42424206,906.666666576,4195.39393897,704.727272657,4474.60606016,506.909090858,4179.93939352,3375.27272694,4172.72727231,3540.12121177,5093.30302979,3090.9090906,3983.15151475,614.060605999,4282.96969654,86.5454545368,4425.15151471,4211.87878746,4762.06060558,4005.81818142,4372.60606017,354.424242389,42.0,42.0,?
2017-08-07 12:14:45.383606,4364.36363593,12.3636363624,3987.78787839,4191.27272685,3667.87878751,712.969696898,3680.75757539,906.666666576,4199.5151511,704.727272657,4481.81818137,506.909090858,4190.75757534,3375.27272694,4180.96969655,3540.12121177,5107.2121207,3090.9090906,3998.60606021,614.060605999,4292.24242381,86.5454545368,4443.69696925,4211.87878746,4771.33333286,4005.81818142,4386.51515108,354.424242389,42.0,42.0,?
2017-08-07 12:14:45.392437,4375.18181774,12.3636363624,3997.57575718,4191.27272685,3680.24242387,712.969696898,3691.06060569,906.666666576,4204.15151473,704.727272657,4480.27272682,506.909090858,4201.06060564,3375.27272694,4189.72727231,3540.12121177,5116.48484797,3090.9090906,4013.54545414,614.060605999,4310.27272684,86.5454545368,4459.66666622,4211.87878746,4782.66666619,4005.81818142,4397.84848441,354.424242389,42.0,42.0,?
2017-08-07 12:14:45.399804,4385.99999956,12.3636363624,4004.27272687,4191.27272685,3686.42424206,712.969696898,3702.39393902,906.666666576,4210.84848443,704.727272657,4483.36363592,506.909090858,4210.84848443,3375.27272694,4207.75757534,3540.12121177,5128.33333282,3090.9090906,4023.84848445,614.060605999,4328.30302987,86.5454545368,4470.48484804,4211.87878746,4795.03030255,4005.81818142,4408.15151471,354.424242389,42.0,42.0,?
2017-08-07 12:14:45.406122,4393.21212077,12.3636363624,4013.54545414,4191.27272685,3693.63636327,712.969696898,3712.18181781,906.666666576,4223.7272723,704.727272657,4494.18181773,506.909090858,4219.09090867,3375.27272694,4221.15151473,3540.12121177,5136.57575706,3090.9090906,4033.12121172,614.060605999,4336.0303026,86.5454545368,4477.69696925,4211.87878746,4799.15151467,4005.81818142,4414.84848441,354.424242389,42.0,42.0,?
2017-08-07 12:14:45.426807,4398.87878744,12.3636363624,4021.27272687,4191.27272685,3702.90909054,712.969696898,3720.93939357,906.666666576,4234.03030261,704.727272657,4499.8484844,506.909090858,4219.60606018,3375.27272694,4227.33333291,3540.12121177,5137.60606009,3090.9090906,4039.81818141,614.060605999,4339.12121169,86.5454545368,4483.87878743,4211.87878746,4802.24242376,4005.81818142,4421.03030259,354.424242389,42.0,42.0,?
2017-08-07 12:14:45.438666,4412.78787835,12.3636363624,4037.75757535,4191.27272685,3724.54545417,712.969696898,3738.9696966,906.666666576,4252.06060564,704.727272657,4523.54545409,506.909090858,4227.84848443,3375.27272694,4249.99999958,3540.12121177,5142.24242373,3090.9090906,4040.33333293,614.060605999,4342.72727229,86.5454545368,4495.21212076,4211.87878746,4808.42424194,4005.81818142,4430.81818138,354.424242389,42.0,42.0,?
2017-08-07 12:14:45.439569,4412.78787835,12.3636363624,4037.75757535,4191.27272685,3724.54545417,712.969696898,3738.9696966,906.666666576,4252.06060564,704.727272657,4523.54545409,506.909090858,4227.84848443,3375.27272694,4249.99999958,3540.12121177,5142.24242373,3090.9090906,4040.33333293,614.060605999,4342.72727229,86.5454545368,4495.21212076,4211.87878746,4808.42424194,4005.81818142,4430.81818138,354.424242389,42.0,42.0,?
2017-08-07 12:14:45.443899,4426.69696925,12.3636363624,4056.3030299,4191.27272685,3731.75757538,712.969696898,3747.72727235,906.666666576,4270.09090866,704.727272657,4533.33333288,506.909090858,4239.18181776,3375.27272694,4258.24242382,3540.12121177,5167.99999948,3090.9090906,4054.24242384,614.060605999,4347.87878744,86.5454545368,4515.30302985,4211.87878746,4809.96969649,4005.81818142,4441.12121168,354.424242389,42.0,42.0,?
2017-08-07 12:14:45.448349,4426.69696925,12.3636363624,4056.3030299,4191.27272685,3741.54545417,712.969696898,3758.03030265,906.666666576,4270.09090866,704.727272657,4529.21212076,506.909090858,4236.60606018,3375.27272694,4261.84848442,3540.12121177,5167.99999948,3090.9090906,4070.72727232,614.060605999,4356.6363632,86.5454545368,4515.30302985,4211.87878746,4820.78787831,4005.81818142,4456.57575713,354.424242389,42.0,42.0,?
2017-08-07 12:14:45.458013,4441.63636319,12.3636363624,4064.54545414,4191.27272685,3753.39393902,712.969696898,3768.84848447,906.666666576,4267.51515109,704.727272657,4530.7575753,506.909090858,4239.18181776,3375.27272694,4270.60606018,3540.12121177,5172.63636312,3090.9090906,4080.51515111,614.060605999,4368.48484805,86.5454545368,4530.7575753,4211.87878746,4833.15151467,4005.81818142,4468.93939349,354.424242389,42.0,42.0,?
2017-08-07 12:14:45.463499,4452.45454501,12.3636363624,4073.81818141,4191.27272685,3763.69696932,712.969696898,3777.09090871,906.666666576,4271.12121169,704.727272657,4539.51515106,506.909090858,4253.09090867,3375.27272694,4281.93939351,3540.12121177,5177.27272675,3090.9090906,4087.2121208,614.060605999,4384.96969653,86.5454545368,4541.57575712,4211.87878746,4847.57575709,4005.81818142,4475.63636319,354.424242389,42.0,42.0,?
2017-08-07 12:14:45.472169,4458.12121168,12.3636363624,4076.9090905,4191.27272685,3769.8787875,712.969696898,3782.75757538,906.666666576,4280.39393897,704.727272657,4547.24242379,506.909090858,4258.24242382,3375.27272694,4287.09090866,3540.12121177,5186.03030251,3090.9090906,4092.87878747,614.060605999,4394.75757532,86.5454545368,4544.1515147,4211.87878746,4857.36363588,4005.81818142,4480.27272682,354.424242389,42.0,42.0,?
2017-08-07 12:14:45.483129,4462.2424238,12.3636363624,4079.99999959,4191.27272685,3773.99999962,712.969696898,3791.51515114,906.666666576,4293.27272684,704.727272657,4557.54545409,506.909090858,4263.90909048,3375.27272694,4296.36363593,3540.12121177,5192.21212069,3090.9090906,4100.09090868,614.060605999,4394.75757532,86.5454545368,4549.30302985,4211.87878746,4859.93939345,4005.81818142,4485.42424198,354.424242389,42.0,42.0,?
2017-08-07 12:14:45.485971,4465.8484844,12.3636363624,4088.75757535,4191.27272685,3781.72727235,712.969696898,3800.78787841,906.666666576,4305.12121169,704.727272657,4569.90909045,506.909090858,4278.33333291,3375.27272694,4312.3333329,3540.12121177,5198.39393887,3090.9090906,4107.81818141,614.060605999,4402.48484804,86.5454545368,4564.24242379,4211.87878746,4867.66666618,4005.81818142,4493.66666622,354.424242389,42.0,42.0,?
2017-08-07 12:14:45.496302,4473.06060561,12.3636363624,4098.03030262,4191.27272685,3792.03030265,712.969696898,3808.51515113,906.666666576,4313.36363593,704.727272657,4577.63636318,506.909090858,4286.06060563,3375.27272694,4320.06060563,3540.12121177,5209.21212069,3090.9090906,4112.96969656,614.060605999,4418.45454501,86.5454545368,4578.66666621,4211.87878746,4881.57575709,4005.81818142,4499.33333288,354.424242389,42.0,42.0,?
2017-08-07 12:14:45.502414,4479.75757531,12.3636363624,4105.24242383,4191.27272685,3799.24242386,712.969696898,3815.72727235,906.666666576,4322.12121169,704.727272657,4587.42424197,506.909090858,4292.24242381,3375.27272694,4325.21212078,3540.12121177,5215.39393887,3090.9090906,4118.63636322,614.060605999,4425.66666622,86.5454545368,4581.24242378,4211.87878746,4883.63636315,4005.81818142,4501.39393894,354.424242389,42.0,42.0,?
2017-08-07 12:14:45.509139,4482.33333289,12.3636363624,4109.87878747,4191.27272685,3803.36363598,712.969696898,3818.30302992,906.666666576,4328.30302987,704.727272657,4596.18181772,506.909090858,4300.99999957,3375.27272694,4333.96969654,3540.12121177,5216.4242419,3090.9090906,4123.27272686,614.060605999,4426.18181774,86.5454545368,4583.81818136,4211.87878746,4880.03030254,4005.81818142,4506.03030258,354.424242389,42.0,42.0,?
2017-08-07 12:14:45.516660,4485.93939349,12.3636363624,4109.87878747,4191.27272685,3806.96969659,712.969696898,3819.33333295,906.666666576,4325.21212078,704.727272657,4592.57575712,506.909090858,4299.96969654,3375.27272694,4334.99999957,3540.12121177,5229.30302978,3090.9090906,4120.69696928,614.060605999,4431.33333289,86.5454545368,4603.39393893,4211.87878746,4883.63636315,4005.81818142,4511.18181773,354.424242389,42.0,42.0,?
2017-08-07 12:14:45.527754,4501.39393894,12.3636363624,4121.72727232,4191.27272685,3819.33333295,712.969696898,3837.36363598,906.666666576,4331.90909048,704.727272657,4599.27272681,506.909090858,4312.84848442,3375.27272694,4347.36363593,3540.12121177,5265.87878735,3090.9090906,4130.48484807,614.060605999,4449.87878743,86.5454545368,4641.51515105,4211.87878746,4903.72727224,4005.81818142,4525.09090864,354.424242389,42.0,42.0,?
2017-08-07 12:14:45.531359,4501.39393894,12.3636363624,4121.72727232,4191.27272685,3819.33333295,712.969696898,3837.36363598,906.666666576,4331.90909048,704.727272657,4599.27272681,506.909090858,4312.84848442,3375.27272694,4347.36363593,3540.12121177,5265.87878735,3090.9090906,4130.48484807,614.060605999,4449.87878743,86.5454545368,4641.51515105,4211.87878746,4903.72727224,4005.81818142,4525.09090864,354.424242389,42.0,42.0,?
2017-08-07 12:14:45.546018,4507.57575713,12.3636363624,4130.48484807,4191.27272685,3830.66666628,712.969696898,3848.1818178,906.666666576,4346.84848441,704.727272657,4606.99999954,506.909090858,4317.99999957,3375.27272694,4364.87878744,3540.12121177,5284.93939341,3090.9090906,4146.96969656,614.060605999,4459.15151471,86.5454545368,4659.54545408,4211.87878746,4913.51515102,4005.81818142,4532.30302985,354.424242389,42.0,42.0,?
2017-08-07 12:14:45.548354,4514.27272682,12.3636363624,4136.66666625,4191.27272685,3835.30302992,712.969696898,3856.42424204,906.666666576,4349.9393935,704.727272657,4609.0606056,506.909090858,4316.96969654,3375.27272694,4370.03030259,3540.12121177,5299.36363583,3090.9090906,4153.66666625,614.060605999,4466.87878743,86.5454545368,4674.99999953,4211.87878746,4919.6969692,4005.81818142,4536.93939349,354.424242389,42.0,42.0,?
2017-08-07 12:14:45.557666,4521.99999955,12.3636363624,4146.45454504,4191.27272685,3842.51515113,712.969696898,3865.69696931,906.666666576,4355.09090866,704.727272657,4615.24242378,506.909090858,4325.72727229,3375.27272694,4375.18181774,3540.12121177,5300.90909038,3090.9090906,4164.48484807,614.060605999,4479.24242379,86.5454545368,4682.21212074,4211.87878746,4928.96969648,4005.81818142,4545.69696924,354.424242389,42.0,42.0,?
2017-08-07 12:14:45.562590,4530.24242379,12.3636363624,4152.63636322,4191.27272685,3855.90909052,712.969696898,3873.93939355,906.666666576,4364.87878744,704.727272657,4624.51515105,506.909090858,4335.51515108,3375.27272694,4390.12121168,3540.12121177,5305.54545401,3090.9090906,4179.93939352,614.060605999,4491.09090864,86.5454545368,4686.33333286,4211.87878746,4940.30302981,4005.81818142,4560.63636318,354.424242389,42.0,42.0,?
2017-08-07 12:14:45.569926,4541.57575712,12.3636363624,4160.87878746,4191.27272685,3865.69696931,712.969696898,3882.69696931,906.666666576,4368.48484805,704.727272657,4629.6666662,506.909090858,4338.60606017,3375.27272694,4400.42424198,3540.12121177,5314.30302977,3090.9090906,4182.5151511,614.060605999,4496.75757531,86.5454545368,4690.45454499,4211.87878746,4946.48484799,4005.81818142,4571.96969651,354.424242389,42.0,42.0,?
2017-08-07 12:14:45.580019,4555.99999954,12.3636363624,4170.15151473,4191.27272685,3871.87878749,712.969696898,3890.42424204,906.666666576,4367.96969653,704.727272657,4633.27272681,506.909090858,4344.78787835,3375.27272694,4396.81818138,3540.12121177,5312.75757523,3090.9090906,4185.60606019,614.060605999,4507.57575713,86.5454545368,4691.48484802,4211.87878746,4955.24242375,4005.81818142,4580.21212075,354.424242389,42.0,42.0,?
2017-08-07 12:14:45.591997,4562.18181773,4166.54545413,4176.33333292,4191.27272685,3879.0909087,712.969696898,3897.12121173,906.666666576,4369.51515108,704.727272657,4633.78787832,506.909090858,4350.45454502,3375.27272694,4393.72727229,3540.12121177,5311.7272722,3090.9090906,4195.90909049,614.060605999,4518.90909046,86.5454545368,4689.93939347,4211.87878746,4965.54545405,4005.81818142,4586.90909045,354.424242389,42.0,42.0,?
2017-08-07 12:14:45.596544,4557.54545409,4166.54545413,4182.5151511,4059.39393899,3882.69696931,712.969696898,3904.84848446,906.666666576,4377.2424238,704.727272657,4634.81818135,506.909090858,4348.90909047,3375.27272694,4402.99999956,3540.12121177,5315.84848432,3090.9090906,4198.48484806,614.060605999,4516.33333288,86.5454545368,4684.2727268,4211.87878746,4968.63636314,4005.81818142,4592.57575712,354.424242389,42.0,42.0,?
2017-08-07 12:14:45.606018,4561.1515147,4166.54545413,4189.72727231,4059.39393899,3888.87878749,712.969696898,3912.06060567,906.666666576,4388.57575714,704.727272657,4644.60606014,506.909090858,4353.03030259,3375.27272694,4413.81818138,3540.12121177,5316.87878735,3090.9090906,4198.48484806,614.060605999,4512.21212076,86.5454545368,4685.30302983,4211.87878746,4970.18181768,4005.81818142,4596.69696924,230.787878765,42.0,42.0,?
2017-08-07 12:14:45.611274,4571.96969651,4166.54545413,4195.39393897,4059.39393899,3897.12121173,572.848484791,3915.15151476,906.666666576,4390.6363632,704.727272657,4650.27272681,506.909090858,4361.78787835,3375.27272694,4418.45454501,3540.12121177,5316.87878735,3090.9090906,4210.33333291,614.060605999,4520.454545,86.5454545368,4693.54545408,4211.87878746,4975.33333284,4005.81818142,4602.3636359,230.787878765,42.0,42.0,?
2017-08-07 12:14:45.618257,4572.99999954,4166.54545413,4198.99999958,4059.39393899,3901.24242385,572.848484791,3920.30302991,741.818181744,4393.72727229,704.727272657,4650.78787832,506.909090858,4363.3333329,3375.27272694,4426.69696925,3540.12121177,5322.0303025,3090.9090906,4223.7272723,614.060605999,4526.63636318,86.5454545368,4691.99999953,4211.87878746,4980.9999995,4005.81818142,4608.54545408,230.787878765,42.0,42.0,?
2017-08-07 12:14:45.626036,4576.09090863,4166.54545413,4203.63636322,4059.39393899,3905.87878749,572.848484791,3935.24242385,741.818181744,4409.69696926,671.75757569,4660.57575711,506.909090858,4365.39393896,3375.27272694,4442.66666622,3540.12121177,5333.87878735,3090.9090906,4231.45454503,614.060605999,4525.60606015,86.5454545368,4691.99999953,4211.87878746,4982.03030253,4005.81818142,4616.27272681,230.787878765,42.0,42.0,?
2017-08-07 12:14:45.633130,4588.96969651,4166.54545413,4211.87878746,4059.39393899,3914.63636324,572.848484791,3947.0909087,741.818181744,4420.51515107,671.75757569,4668.30302984,420.363636322,4372.60606017,3375.27272694,4453.99999955,3540.12121177,5336.45454492,3090.9090906,4241.24242382,614.060605999,4528.69696924,86.5454545368,4700.75757529,4211.87878746,4987.6969692,4005.81818142,4621.93939348,230.787878765,42.0,42.0,?
2017-08-07 12:14:45.642203,4599.78787833,4166.54545413,4219.60606018,4059.39393899,3922.87878749,572.848484791,3946.06060567,741.818181744,4421.5454541,671.75757569,4668.30302984,420.363636322,4372.09090865,3338.18181785,4448.8484844,3540.12121177,5323.57575704,3090.9090906,4247.93939351,614.060605999,4531.27272682,86.5454545368,4698.18181771,4211.87878746,4996.45454495,4005.81818142,4628.12121166,230.787878765,42.0,42.0,?
2017-08-07 12:14:45.649463,4604.42424196,4166.54545413,4222.69696927,4059.39393899,3921.84848446,572.848484791,3949.66666627,741.818181744,4421.03030259,671.75757569,4667.27272681,420.363636322,4369.51515108,3338.18181785,4444.21212077,3494.78787844,5316.36363583,3090.9090906,4252.57575715,614.060605999,4520.96969652,86.5454545368,4684.78787832,4211.87878746,4999.03030253,4005.81818142,4639.45454499,230.787878765,42.0,42.0,?
2017-08-07 12:14:45.657155,4605.45454499,4166.54545413,4226.8181814,4059.39393899,3919.7878784,572.848484791,3957.90909051,741.818181744,4422.57575713,671.75757569,4673.45454499,420.363636322,4379.81818138,3338.18181785,4456.57575713,3494.78787844,5324.60606007,2917.81818153,4259.27272685,614.060605999,4506.54545409,86.5454545368,4680.15151468,4211.87878746,4997.48484799,4005.81818142,4648.72727226,230.787878765,42.0,42.0,?
2017-08-07 12:14:45.669667,4608.03030257,4166.54545413,4233.51515109,4059.39393899,3922.87878749,572.848484791,3962.03030263,741.818181744,4432.87878744,671.75757569,4685.30302983,420.363636322,4391.15151471,3338.18181785,4470.48484804,3494.78787844,5326.15151462,2917.81818153,4263.39393897,523.393939342,4502.93939349,86.5454545368,4680.15151468,4211.87878746,4996.96969647,4005.81818142,4649.24242378,230.787878765,42.0,42.0,?
2017-08-07 12:14:45.676072,4626.57575711,4166.54545413,4243.30302988,4059.39393899,3938.33333294,572.848484791,3975.93939354,741.818181744,4444.72727228,671.75757569,4688.90909044,420.363636322,4393.21212077,3338.18181785,4477.69696925,3494.78787844,5316.87878735,2917.81818153,4274.21212078,523.393939342,4513.24242379,28.8484848456,4677.06060559,4145.93939352,5016.54545404,4005.81818142,4661.09090862,230.787878765,42.0,42.0,?
2017-08-07 12:14:45.681312,4626.57575711,4166.54545413,4243.30302988,4059.39393899,3938.33333294,572.848484791,3975.93939354,741.818181744,4444.72727228,671.75757569,4688.90909044,420.363636322,4393.21212077,3338.18181785,4477.69696925,3494.78787844,5316.87878735,2917.81818153,4274.21212078,523.393939342,4513.24242379,28.8484848456,4677.06060559,4145.93939352,5016.54545404,4005.81818142,4661.09090862,230.787878765,42.0,42.0,?
2017-08-07 12:14:45.690710,4632.75757529,4166.54545413,4255.66666624,4059.39393899,3946.57575718,572.848484791,3986.75757536,741.818181744,4444.72727228,671.75757569,4693.03030256,420.363636322,4399.39393895,3338.18181785,4491.09090864,3494.78787844,5323.57575704,2917.81818153,4289.15151472,523.393939342,4507.06060561,28.8484848456,4682.21212074,4145.93939352,5011.39393889,3816.24242386,4670.3636359,230.787878765,42.0,42.0,?
2017-08-07 12:14:45.699113,4629.15151469,4166.54545413,4253.60606018,4059.39393899,3945.54545415,572.848484791,3989.33333293,741.818181744,4456.06060561,671.75757569,4706.42424195,420.363636322,4398.87878744,3338.18181785,4491.60606016,3494.78787844,5320.48484795,2917.81818153,4289.15151472,511.030302979,4498.81818137,28.8484848456,4674.48484802,4145.93939352,4997.9999995,3816.24242386,4671.39393893,230.787878765,42.0,42.0,?
2017-08-07 12:14:45.704213,4629.6666662,4166.54545413,4253.60606018,4059.39393899,3947.60606021,572.848484791,3992.93939354,741.818181744,4463.27272683,671.75757569,4710.03030256,420.363636322,4398.87878744,3338.18181785,4490.06060561,3494.78787844,5316.36363583,2917.81818153,4286.06060563,511.030302979,4502.42424197,28.8484848456,4670.87878741,4145.93939352,5002.63636314,3816.24242386,4671.39393893,230.787878765,42.0,42.0,?
2017-08-07 12:14:45.711774,4638.42424196,4166.54545413,4264.93939351,4059.39393899,3960.48484809,572.848484791,4000.15151475,741.818181744,4466.87878743,671.75757569,4710.03030256,420.363636322,4403.51515107,3338.18181785,4495.72727228,3494.78787844,5318.93939341,2917.81818153,4291.7272723,511.030302979,4509.12121167,28.8484848456,4678.09090862,4150.06060565,5018.6060601,3816.24242386,4676.54545408,230.787878765,42.0,42.0,?
2017-08-07 12:14:45.723707,4643.57575711,4166.54545413,4268.54545412,4059.39393899,3959.96969657,572.848484791,4004.27272687,741.818181744,4463.27272683,671.75757569,4717.75757529,420.363636322,4405.06060562,3338.18181785,4494.18181773,3494.78787844,5318.42424189,2917.81818153,4296.87878745,511.030302979,4511.18181773,28.8484848456,4678.09090862,4150.06060565,5023.24242374,3816.24242386,4680.15151468,230.787878765,42.0,42.0,?
2017-08-07 12:14:45.727273,4646.15151469,4166.54545413,4270.09090866,4059.39393899,3956.87878748,572.848484791,4008.90909051,741.818181744,4461.21212077,671.75757569,4722.90909044,420.363636322,4411.2424238,3338.18181785,4490.06060561,3494.78787844,5317.39393886,2917.81818153,4299.45454502,511.030302979,4516.8484844,28.8484848456,4676.54545408,4150.06060565,5029.42424192,3816.24242386,4685.81818135,230.787878765,42.0,42.0,?
2017-08-07 12:14:45.734952,4654.90909044,4166.54545413,4281.424242,4059.39393899,3969.24242385,572.848484791,4019.21212081,741.818181744,4475.12121167,671.75757569,4724.9696965,420.363636322,4419.48484804,3338.18181785,4501.39393894,3494.78787844,5320.48484795,2917.81818153,4304.60606018,511.030302979,4519.93939349,28.8484848456,4681.69696923,4150.06060565,5036.63636313,3816.24242386,4694.06060559,230.787878765,42.0,42.0,?
2017-08-07 12:14:45.742770,4659.03030256,4166.54545413,4286.57575715,4059.39393899,3976.96969657,572.848484791,4024.36363596,741.818181744,4483.36363592,671.75757569,4725.99999953,420.363636322,4415.36363592,3338.18181785,4506.54545409,3494.78787844,5318.93939341,2917.81818153,4302.0303026,511.030302979,4509.12121167,28.8484848456,4676.54545408,4150.06060565,5025.3030298,3816.24242386,4693.54545408,230.787878765,42.0,42.0,?
2017-08-07 12:14:45.755931,4656.45454499,4166.54545413,4289.15151472,4059.39393899,3975.93939354,572.848484791,4025.90909051,741.818181744,4481.30302985,671.75757569,4729.60606013,420.363636322,4410.72727229,3338.18181785,4500.87878743,3494.78787844,5313.27272674,2917.81818153,4298.93939351,511.030302979,4500.87878743,28.8484848456,4668.30302984,4150.06060565,5011.90909041,3816.24242386,4693.03030256,230.787878765,42.0,42.0,?
2017-08-07 12:14:45.758915,4666.24242378,4166.54545413,4300.99999957,4059.39393899,3985.72727233,572.848484791,4038.78787838,741.818181744,4489.03030258,671.75757569,4735.78787831,420.363636322,4420.51515107,3338.18181785,4507.06060561,3494.78787844,5316.36363583,2917.81818153,4309.75757533,511.030302979,4513.24242379,28.8484848456,4677.06060559,4150.06060565,5024.78787829,3816.24242386,4703.33333286,230.787878765,42.0,42.0,?
2017-08-07 12:14:45.767892,4677.57575711,4166.54545413,4309.24242381,4059.39393899,3999.12121172,572.848484791,4048.57575717,741.818181744,4500.36363591,671.75757569,4745.06060559,420.363636322,4434.42424198,3338.18181785,4524.06060561,3494.78787844,5328.21212068,2917.81818153,4318.51515108,511.030302979,4521.99999955,28.8484848456,4689.42424196,4150.06060565,5041.27272677,3816.24242386,4711.06060559,230.787878765,42.0,42.0,?
2017-08-07 12:14:45.774362,4679.12121165,4166.54545413,4309.75757533,4059.39393899,4002.21212081,572.848484791,4048.57575717,741.818181744,4499.33333288,671.75757569,4748.66666619,420.363636322,4440.60606016,3338.18181785,4531.78787833,3494.78787844,5337.48484795,2917.81818153,4320.06060563,511.030302979,4517.36363591,28.8484848456,4696.12121165,4150.06060565,5038.18181768,3816.24242386,4714.15151468,230.787878765,42.0,42.0,?
2017-08-07 12:14:45.783199,4682.72727226,4166.54545413,4311.81818139,4059.39393899,4002.72727233,572.848484791,4050.63636323,741.818181744,4494.18181773,671.75757569,4745.06060559,420.363636322,4444.21212077,3338.18181785,4533.33333288,3494.78787844,5335.42424189,2917.81818153,4324.69696926,511.030302979,4523.03030258,28.8484848456,4703.33333286,4150.06060565,5042.81818131,3816.24242386,4719.81818135,230.787878765,42.0,42.0,?
2017-08-07 12:14:45.789658,4689.42424196,4166.54545413,4314.90909048,4059.39393899,4006.84848445,572.848484791,4056.3030299,741.818181744,4497.27272682,671.75757569,4749.69696922,420.363636322,4456.06060561,3338.18181785,4541.57575712,3494.78787844,5336.96969644,2917.81818153,4334.48484805,511.030302979,4541.06060561,28.8484848456,4712.09090862,4150.06060565,5062.9090904,3816.24242386,4724.9696965,230.787878765,42.0,42.0,?
2017-08-07 12:14:45.797892,4693.54545408,4166.54545413,4317.99999957,4059.39393899,4010.96969657,572.848484791,4060.42424202,741.818181744,4506.54545409,671.75757569,4762.06060558,420.363636322,4468.93939349,3338.18181785,4548.27272682,3494.78787844,5348.81818128,2917.81818153,4340.15151472,511.030302979,4541.57575712,28.8484848456,4716.21212074,4150.06060565,5070.12121161,3816.24242386,4725.99999953,230.787878765,42.0,42.0,?
2017-08-07 12:14:45.808702,4697.15151468,4166.54545413,4321.60606017,4059.39393899,4011.48484808,572.848484791,4064.54545414,741.818181744,4512.21212076,671.75757569,4766.18181771,420.363636322,4465.8484844,3338.18181785,4542.09090864,3494.78787844,5349.3333328,2917.81818153,4332.42424199,511.030302979,4526.63636318,28.8484848456,4711.06060559,4150.06060565,5057.24242374,3816.24242386,4728.06060559,230.787878765,42.0,42.0,?
2017-08-07 12:14:45.813849,4701.78787832,4166.54545413,4325.21212078,4059.39393899,4013.54545414,572.848484791,4065.57575717,741.818181744,4510.1515147,671.75757569,4762.06060558,420.363636322,4451.93939349,3338.18181785,4532.30302985,3494.78787844,5336.96969644,2917.81818153,4324.69696926,511.030302979,4521.48484803,28.8484848456,4702.81818135,4150.06060565,5046.42424192,3816.24242386,4729.60606013,230.787878765,42.0,42.0,?
2017-08-07 12:14:45.821782,4701.78787832,4166.54545413,4327.78787836,4059.39393899,4019.21212081,572.848484791,4069.18181777,741.818181744,4513.24242379,671.75757569,4764.12121164,420.363636322,4450.39393895,3338.18181785,4534.36363591,3494.78787844,5335.93939341,2917.81818153,4328.30302987,511.030302979,4527.1515147,28.8484848456,4701.78787832,4150.06060565,5054.15151465,3816.24242386,4730.63636316,230.787878765,42.0,42.0,?
2017-08-07 12:14:45.830449,4702.81818135,4166.54545413,4329.3333329,4059.39393899,4021.78787839,572.848484791,4076.39393899,741.818181744,4524.57575712,671.75757569,4773.39393892,420.363636322,4462.2424238,3338.18181785,4545.18181773,3494.78787844,5343.66666613,2917.81818153,4335.51515108,511.030302979,4534.36363591,28.8484848456,4707.45454498,4150.06060565,5070.12121161,3816.24242386,4733.72727225,230.787878765,42.0,42.0,?
2017-08-07 12:14:45.844157,4711.5757571,4166.54545413,4333.45454502,4059.39393899,4027.96969657,572.848484791,4081.03030262,741.818181744,4528.69696924,671.75757569,4783.1818177,420.363636322,4469.45454501,3338.18181785,4552.90909045,3494.78787844,5347.78787825,2917.81818153,4342.21212078,511.030302979,4547.24242379,28.8484848456,4714.6666662,4150.06060565,5079.39393889,3816.24242386,4741.45454498,230.787878765,42.0,42.0,?
2017-08-07 12:14:45.846629,4721.36363589,4166.54545413,4340.66666623,4059.39393899,4038.78787838,572.848484791,4087.72727232,741.818181744,4526.63636318,671.75757569,4786.27272679,420.363636322,4474.09090864,3338.18181785,4560.12121167,3494.78787844,5353.45454492,2917.81818153,4350.96969653,511.030302979,4556.51515106,28.8484848456,4722.39393892,4150.06060565,5079.9090904,3816.24242386,4750.72727225,230.787878765,42.0,42.0,?
2017-08-07 12:14:45.852240,4727.03030256,4166.54545413,4346.84848441,4059.39393899,4043.42424202,572.848484791,4093.9090905,741.818181744,4526.12121167,671.75757569,4784.21212073,420.363636322,4478.72727228,3338.18181785,4564.24242379,3494.78787844,5359.12121159,2917.81818153,4357.15151472,511.030302979,4554.454545,28.8484848456,4726.51515104,4150.06060565,5085.57575707,3816.24242386,4755.8787874,230.787878765,42.0,42.0,?
2017-08-07 12:14:45.870876,4730.12121165,4166.54545413,4350.96969653,4059.39393899,4045.48484808,572.848484791,4099.06060565,741.818181744,4530.24242379,671.75757569,4783.69696922,420.363636322,4481.81818137,3338.18181785,4564.7575753,3494.78787844,5358.09090856,2917.81818153,4351.99999956,511.030302979,4551.87878742,28.8484848456,4722.39393892,4150.06060565,5094.33333282,3816.24242386,4759.99999952,230.787878765,42.0,42.0,?
2017-08-07 12:14:45.874842,4731.15151468,4166.54545413,4354.06060563,4059.39393899,4052.69696929,572.848484791,4106.27272686,741.818181744,4534.36363591,671.75757569,4785.24242376,420.363636322,4489.03030258,3338.18181785,4569.39393894,3494.78787844,5362.72727219,2917.81818153,4351.48484805,511.030302979,4557.03030257,28.8484848456,4726.51515104,4150.06060565,5096.9090904,3816.24242386,4764.12121164,230.787878765,42.0,42.0,?
2017-08-07 12:14:45.879299,4735.2727268,4166.54545413,4356.12121169,4059.39393899,4058.36363596,572.848484791,4110.9090905,741.818181744,4540.03030258,671.75757569,4788.84848437,420.363636322,4496.75757531,3338.18181785,4582.78787833,3494.78787844,5376.6363631,2917.81818153,4362.30302987,511.030302979,4562.69696924,28.8484848456,4743.51515104,4150.06060565,5101.54545404,3816.24242386,4764.63636316,230.787878765,42.0,42.0,?
2017-08-07 12:14:45.883405,4740.93939347,4166.54545413,4363.84848441,4059.39393899,4060.93939353,572.848484791,4109.87878747,741.818181744,4546.21212076,671.75757569,4795.54545407,420.363636322,4496.24242379,3338.18181785,4594.12121166,3494.78787844,5382.81818128,2917.81818153,4371.57575714,511.030302979,4560.63636318,28.8484848456,4751.75757528,4150.06060565,5106.18181767,3816.24242386,4766.69696922,230.787878765,42.0,42.0,?
2017-08-07 12:14:45.891066,4742.48484801,4166.54545413,4370.54545411,4059.39393899,4067.12121171,572.848484791,4114.5151511,741.818181744,4548.78787833,671.75757569,4802.75757528,420.363636322,4493.66666622,3338.18181785,4594.63636318,3494.78787844,5378.69696916,2917.81818153,4372.09090865,511.030302979,4554.96969651,28.8484848456,4742.99999953,4150.06060565,5100.51515101,3816.24242386,4773.39393892,230.787878765,42.0,42.0,?
2017-08-07 12:14:45.899739,4739.90909044,4166.54545413,4369.51515108,4059.39393899,4074.33333293,572.848484791,4124.30302989,741.818181744,4553.42424197,671.75757569,4804.30302982,420.363636322,4496.24242379,3338.18181785,4593.60606015,3494.78787844,5379.72727219,2917.81818153,4368.99999956,511.030302979,4552.39393894,28.8484848456,4740.42424195,4150.06060565,5089.18181767,3816.24242386,4774.93939346,230.787878765,42.0,42.0,?
2017-08-07 12:14:45.907487,4744.03030256,4166.54545413,4373.12121168,4059.39393899,4079.48484808,572.848484791,4126.36363595,741.818181744,4558.57575712,671.75757569,4803.27272679,420.363636322,4497.78787834,3338.18181785,4595.15151469,3494.78787844,5387.45454492,2917.81818153,4368.99999956,511.030302979,4552.90909045,28.8484848456,4746.09090862,4150.06060565,5088.15151464,3816.24242386,4770.81818134,230.787878765,42.0,42.0,?
2017-08-07 12:14:45.914701,4749.69696922,4166.54545413,4378.78787835,4059.39393899,4080.51515111,572.848484791,4128.93939353,741.818181744,4560.12121167,671.75757569,4801.21212073,420.363636322,4497.27272682,3338.18181785,4597.21212075,3494.78787844,5388.48484795,2917.81818153,4368.99999956,511.030302979,4562.69696924,28.8484848456,4749.18181771,4150.06060565,5101.03030252,3816.24242386,4773.90909043,230.787878765,42.0,42.0,?
2017-08-07 12:14:45.922240,4749.69696922,4166.54545413,4377.2424238,4059.39393899,4077.93939353,572.848484791,4133.06060565,741.818181744,4558.57575712,671.75757569,4803.78787831,420.363636322,4502.93939349,3338.18181785,4599.78787833,3494.78787844,5387.45454492,2917.81818153,4369.51515108,511.030302979,4569.39393894,28.8484848456,4756.39393892,4150.06060565,5108.75757525,3816.24242386,4777.51515104,230.787878765,42.0,42.0,?
2017-08-07 12:14:45.932965,4748.15151468,4166.54545413,4377.75757532,4059.39393899,4080.51515111,572.848484791,4133.57575716,741.818181744,4564.24242379,671.75757569,4813.57575709,420.363636322,4512.72727228,3338.18181785,4606.48484802,3494.78787844,5398.78787825,2917.81818153,4372.09090865,511.030302979,4566.81818136,28.8484848456,4767.72727225,4150.06060565,5109.78787828,3816.24242386,4772.8787874,230.787878765,42.0,42.0,?
2017-08-07 12:14:45.938423,4753.81818134,4166.54545413,4385.48484805,4059.39393899,4088.75757535,572.848484791,4136.15151474,741.818181744,4570.93939348,671.75757569,4820.78787831,420.363636322,4515.81818137,3338.18181785,4614.72727227,3494.78787844,5413.72727219,2917.81818153,4382.90909047,511.030302979,4569.39393894,28.8484848456,4778.54545407,4150.06060565,5112.36363585,3816.24242386,4773.90909043,230.787878765,42.0,42.0,?
2017-08-07 12:14:45.946095,4761.03030255,4166.54545413,4391.15151471,4059.39393899,4094.42424201,572.848484791,4141.30302989,741.818181744,4566.81818136,671.75757569,4817.1818177,420.363636322,4511.69696925,3338.18181785,4614.72727227,3494.78787844,5414.2424237,2917.81818153,4393.21212077,511.030302979,4577.63636318,28.8484848456,4787.30302982,4150.06060565,5118.03030252,3816.24242386,4785.24242376,230.787878765,42.0,42.0,?
2017-08-07 12:14:45.953611,4760.51515104,4166.54545413,4394.2424238,4059.39393899,4099.57575717,572.848484791,4149.03030262,741.818181744,4564.24242379,671.75757569,4814.09090861,420.363636322,4507.57575713,3338.18181785,4609.57575711,3494.78787844,5410.12121158,2917.81818153,4394.2424238,511.030302979,4572.48484803,28.8484848456,4789.8787874,4150.06060565,5112.36363585,3816.24242386,4786.78787831,230.787878765,42.0,42.0,?
2017-08-07 12:14:45.961421,4761.03030255,4166.54545413,4402.48484804,4059.39393899,4105.75757535,572.848484791,4155.2121208,741.818181744,4576.60606015,671.75757569,4822.84848437,420.363636322,4510.66666622,3338.18181785,4610.60606014,3494.78787844,5413.21212067,2917.81818153,4395.27272683,511.030302979,4563.21212076,28.8484848456,4785.24242376,4150.06060565,5102.06060555,3816.24242386,4783.1818177,230.787878765,42.0,42.0,?
2017-08-07 12:14:45.971978,4768.75757528,4166.54545413,4412.27272683,4059.39393899,4115.03030262,572.848484791,4160.36363595,741.818181744,4592.0606056,671.75757569,4833.66666618,420.363636322,4513.24242379,3338.18181785,4620.90909045,3494.78787844,5418.87878734,2917.81818153,4402.48484804,511.030302979,4568.36363591,28.8484848456,4785.24242376,4150.06060565,5104.63636313,3816.24242386,4792.45454498,230.787878765,42.0,42.0,?
2017-08-07 12:14:45.976985,4774.93939346,4166.54545413,4416.90909047,4059.39393899,4123.27272686,572.848484791,4164.48484807,741.818181744,4594.63636318,671.75757569,4834.69696921,420.363636322,4515.30302985,3338.18181785,4626.57575711,3494.78787844,5424.545454,2917.81818153,4409.69696926,511.030302979,4579.69696924,28.8484848456,4791.42424195,4150.06060565,5114.42424191,3816.24242386,4804.30302982,230.787878765,42.0,42.0,?
2017-08-07 12:14:45.985855,4779.5757571,4166.54545413,4421.03030259,4059.39393899,4126.36363595,572.848484791,4171.18181776,741.818181744,4586.90909045,671.75757569,4831.60606012,420.363636322,4519.93939349,3338.18181785,4624.51515105,3494.78787844,5426.60606006,2917.81818153,4415.87878744,511.030302979,4583.81818136,28.8484848456,4797.60606013,4150.06060565,5124.2121207,3816.24242386,4808.42424194,230.787878765,42.0,42.0,?
2017-08-07 12:14:45.994388,4785.75757528,4166.54545413,4424.63636319,4059.39393899,4127.9090905,572.848484791,4174.78787837,741.818181744,4585.36363591,671.75757569,4834.69696921,420.363636322,4525.60606015,3338.18181785,4625.03030257,3494.78787844,5425.57575703,2917.81818153,4418.45454501,511.030302979,4583.81818136,28.8484848456,4801.72727225,4150.06060565,5129.87878737,3816.24242386,4812.54545406,230.787878765,42.0,42.0,?
2017-08-07 12:14:46.001959,4789.8787874,4166.54545413,4425.15151471,4059.39393899,4127.39393898,572.848484791,4171.69696928,741.818181744,4591.03030257,671.75757569,4837.7878783,420.363636322,4526.63636318,3338.18181785,4628.63636317,3494.78787844,5425.57575703,2917.81818153,4410.21212077,511.030302979,4580.21212075,28.8484848456,4798.63636316,4150.06060565,5124.72727221,3816.24242386,4816.66666619,230.787878765,42.0,42.0,?
2017-08-07 12:14:46.010822,4787.30302982,4166.54545413,4426.18181774,4059.39393899,4127.39393898,572.848484791,4174.78787837,741.818181744,4596.18181772,671.75757569,4835.21212073,420.363636322,4526.63636318,3338.18181785,4633.78787832,3494.78787844,5429.18181764,2917.81818153,4412.27272683,511.030302979,4576.09090863,28.8484848456,4797.60606013,4150.06060565,5116.99999949,3816.24242386,4816.66666619,230.787878765,42.0,42.0,?
2017-08-07 12:14:46.018966,4788.33333285,4166.54545413,4432.87878744,4059.39393899,4133.06060565,572.848484791,4184.57575716,741.818181744,4598.24242378,671.75757569,4839.84848436,420.363636322,4527.1515147,3338.18181785,4640.48484802,3494.78787844,5435.36363582,2917.81818153,4428.75757531,511.030302979,4584.33333287,28.8484848456,4803.27272679,4150.06060565,5126.27272676,3816.24242386,4820.78787831,230.787878765,42.0,42.0,?
2017-08-07 12:14:46.024953,4793.99999952,4166.54545413,4437.51515107,4059.39393899,4137.18181777,572.848484791,4188.69696928,741.818181744,4601.84848439,671.75757569,4851.69696921,420.363636322,4529.72727227,3338.18181785,4642.54545408,3494.78787844,5439.99999946,2917.81818153,4432.36363592,511.030302979,4595.66666621,28.8484848456,4806.8787874,4150.06060565,5138.12121161,3816.24242386,4827.484848,230.787878765,42.0,42.0,?
2017-08-07 12:14:46.032728,4799.15151467,4166.54545413,4440.09090865,4059.39393899,4134.60606019,572.848484791,4186.1212117,741.818181744,4605.96969651,671.75757569,4853.24242376,420.363636322,4538.48484803,3338.18181785,4644.60606014,3494.78787844,5442.06060552,2917.81818153,4428.75757531,511.030302979,4599.78787833,28.8484848456,4809.96969649,4150.06060565,5138.12121161,3816.24242386,4831.09090861,230.787878765,42.0,42.0,?
2017-08-07 12:14:46.040501,4803.27272679,4166.54545413,4445.75757531,4059.39393899,4135.12121171,572.848484791,4186.63636322,741.818181744,4611.12121166,671.75757569,4851.69696921,420.363636322,4544.66666621,3338.18181785,4652.33333287,3494.78787844,5445.15151461,2917.81818153,4434.42424198,511.030302979,4603.39393893,28.8484848456,4818.72727225,4150.06060565,5137.09090858,3816.24242386,4833.15151467,230.787878765,42.0,42.0,?
2017-08-07 12:14:46.047071,4802.24242376,4166.54545413,4448.8484844,4059.39393899,4138.2121208,572.848484791,4191.78787837,741.818181744,4613.69696924,671.75757569,4859.93939345,420.363636322,4543.63636318,3338.18181785,4654.39393893,3494.78787844,5451.33333279,2917.81818153,4438.5454541,511.030302979,4608.03030257,28.8484848456,4824.39393891,4150.06060565,5142.75757524,3816.24242386,4835.21212073,230.787878765,42.0,42.0,?
2017-08-07 12:14:46.060292,4803.27272679,4166.54545413,4448.8484844,4059.39393899,4143.87878746,572.848484791,4191.27272685,741.818181744,4612.66666621,671.75757569,4861.484848,420.363636322,4544.1515147,3338.18181785,4653.87878741,3494.78787844,5458.03030248,2917.81818153,4440.09090865,511.030302979,4609.0606056,28.8484848456,4822.33333285,4150.06060565,5146.87878736,3816.24242386,4837.7878783,230.787878765,42.0,42.0,?
2017-08-07 12:14:46.072586,4805.84848437,4166.54545413,4451.93939349,4059.39393899,4149.54545413,572.848484791,4190.75757534,741.818181744,4610.09090863,671.75757569,4851.1818177,420.363636322,4545.18181773,3338.18181785,4656.45454499,3494.78787844,5461.63636309,2917.81818153,4440.60606016,511.030302979,4606.48484802,28.8484848456,4818.72727225,4150.06060565,5143.27272676,3816.24242386,4836.24242376,230.787878765,42.0,42.0,?
2017-08-07 12:14:46.083251,4799.15151467,4166.54545413,4450.39393895,4059.39393899,4147.48484807,572.848484791,4189.72727231,741.818181744,4605.96969651,671.75757569,4847.57575709,420.363636322,4538.99999955,3338.18181785,4644.60606014,3494.78787844,5460.60606006,2917.81818153,4430.81818138,511.030302979,4607.51515105,28.8484848456,4823.36363588,4150.06060565,5143.27272676,3816.24242386,4833.66666618,230.787878765,42.0,42.0,?
2017-08-07 12:14:46.088359,4811.51515103,3989.33333293,4465.33333289,4059.39393899,4162.93939352,572.848484791,4203.63636322,741.818181744,4615.24242378,671.75757569,4865.0909086,420.363636322,4548.78787833,3338.18181785,4660.57575711,3494.78787844,5471.42424188,2917.81818153,4447.81818137,511.030302979,4615.24242378,28.8484848456,4829.03030255,4150.06060565,5150.99999948,3816.24242386,4835.72727224,230.787878765,42.0,42.0,?
2017-08-07 12:14:46.091991,4811.51515103,3989.33333293,4465.33333289,4059.39393899,4162.93939352,572.848484791,4203.63636322,741.818181744,4615.24242378,671.75757569,4865.0909086,420.363636322,4548.78787833,3338.18181785,4660.57575711,3494.78787844,5471.42424188,2917.81818153,4447.81818137,511.030302979,4615.24242378,28.8484848456,4829.03030255,4150.06060565,5150.99999948,3816.24242386,4835.72727224,230.787878765,42.0,42.0,?
2017-08-07 12:14:46.097226,4811.51515103,3989.33333293,4465.33333289,4059.39393899,4162.93939352,572.848484791,4203.63636322,741.818181744,4615.24242378,671.75757569,4865.0909086,420.363636322,4548.78787833,3338.18181785,4660.57575711,3494.78787844,5471.42424188,2917.81818153,4447.81818137,511.030302979,4615.24242378,28.8484848456,4829.03030255,4150.06060565,5150.99999948,3816.24242386,4835.72727224,230.787878765,42.0,42.0,?
2017-08-07 12:14:46.104058,4804.30302982,3989.33333293,4462.2424238,4063.51515111,4166.54545413,572.848484791,4203.1212117,741.818181744,4622.45454499,671.75757569,4868.1818177,420.363636322,4555.99999954,3338.18181785,4666.75757529,3494.78787844,5478.12121157,2917.81818153,4448.33333289,511.030302979,4606.99999954,28.8484848456,4829.54545406,4150.06060565,5143.27272676,3816.24242386,4837.27272679,230.787878765,42.0,42.0,?
2017-08-07 12:14:46.111188,4810.484848,3989.33333293,4463.78787834,4063.51515111,4176.33333292,572.848484791,4208.27272685,741.818181744,4629.6666662,671.75757569,4868.1818177,420.363636322,4560.12121167,3338.18181785,4676.54545408,3494.78787844,5483.78787824,2917.81818153,4453.48484804,511.030302979,4617.81818136,28.8484848456,4837.7878783,4150.06060565,5153.06060555,3816.24242386,4847.57575709,74.1818181744,42.0,42.0,?
2017-08-07 12:14:46.122996,4822.33333285,3989.33333293,4475.63636319,4063.51515111,4186.1212117,564.60606055,4219.09090867,741.818181744,4626.0606056,671.75757569,4869.72727224,420.363636322,4561.1515147,3338.18181785,4676.54545408,3494.78787844,5488.42424188,2917.81818153,4460.18181774,511.030302979,4635.84848438,28.8484848456,4844.99999952,4150.06060565,5169.03030251,3816.24242386,4852.72727224,74.1818181744,42.0,42.0,?
2017-08-07 12:14:46.128169,4821.81818134,3989.33333293,4480.78787834,4063.51515111,4188.18181776,564.60606055,4220.1212117,754.181818106,4619.3636359,671.75757569,4874.87878739,420.363636322,4561.1515147,3338.18181785,4667.27272681,3494.78787844,5489.45454491,2917.81818153,4460.18181774,511.030302979,4635.33333287,28.8484848456,4842.42424194,4150.06060565,5171.60606009,3816.24242386,4848.60606012,74.1818181744,42.0,42.0,?
2017-08-07 12:14:46.133289,4817.69696922,3989.33333293,4477.69696925,4063.51515111,4189.72727231,564.60606055,4217.54545412,754.181818106,4622.96969651,519.272727221,4880.54545406,420.363636322,4560.12121167,3338.18181785,4668.81818135,3494.78787844,5490.99999945,2917.81818153,4451.42424198,511.030302979,4623.99999954,28.8484848456,4835.21212073,4150.06060565,5162.33333282,3816.24242386,4847.06060558,74.1818181744,42.0,42.0,?
2017-08-07 12:14:46.141096,4820.27272679,3989.33333293,4480.78787834,4063.51515111,4190.24242382,564.60606055,4220.1212117,754.181818106,4621.93939348,519.272727221,4880.03030254,234.909090886,4557.54545409,3338.18181785,4668.81818135,3494.78787844,5490.99999945,2917.81818153,4443.69696925,511.030302979,4617.81818136,28.8484848456,4828.51515103,4150.06060565,5154.60606009,3816.24242386,4849.12121164,74.1818181744,42.0,42.0,?
2017-08-07 12:14:46.149186,4824.90909043,3989.33333293,4490.06060561,4063.51515111,4192.30302988,564.60606055,4223.21212079,754.181818106,4615.24242378,519.272727221,4876.42424194,234.909090886,4555.48484803,3288.7272724,4659.03030256,3494.78787844,5484.81818127,2917.81818153,4444.72727228,511.030302979,4621.93939348,28.8484848456,4823.8787874,4150.06060565,5157.18181767,3816.24242386,4847.06060558,74.1818181744,42.0,42.0,?
2017-08-07 12:14:46.157012,4824.90909043,3989.33333293,4494.69696925,4063.51515111,4195.39393897,564.60606055,4223.7272723,754.181818106,4616.78787833,519.272727221,4879.51515103,234.909090886,4555.48484803,3288.7272724,4657.48484802,3329.93939361,5482.75757521,2917.81818153,4445.75757531,511.030302979,4626.57575711,28.8484848456,4819.75757528,4150.06060565,5162.84848433,3816.24242386,4847.06060558,74.1818181744,42.0,42.0,?
2017-08-07 12:14:46.165590,4821.30302982,3989.33333293,4491.09090864,4063.51515111,4192.8181814,564.60606055,4221.15151473,754.181818106,4620.90909045,519.272727221,4881.06060557,234.909090886,4555.48484803,3288.7272724,4661.60606014,3329.93939361,5488.42424188,2748.84848457,4440.09090865,511.030302979,4620.39393893,28.8484848456,4817.69696922,4150.06060565,5156.66666615,3816.24242386,4844.484848,74.1818181744,42.0,42.0,?
2017-08-07 12:14:46.173031,4821.30302982,3989.33333293,4491.09090864,4063.51515111,4191.78787837,564.60606055,4223.7272723,754.181818106,4622.96969651,519.272727221,4880.54545406,234.909090886,4557.54545409,3288.7272724,4667.27272681,3329.93939361,5490.99999945,2748.84848457,4437.51515107,519.272727221,4613.18181772,28.8484848456,4819.24242376,4150.06060565,5147.39393888,3816.24242386,4838.81818133,74.1818181744,42.0,42.0,?
2017-08-07 12:14:46.180372,4828.51515103,3989.33333293,4494.69696925,4063.51515111,4200.03030261,564.60606055,4233.51515109,754.181818106,4623.48484802,519.272727221,4890.84848436,234.909090886,4559.09090864,3288.7272724,4668.81818135,3329.93939361,5490.99999945,2748.84848457,4439.57575713,519.272727221,4618.84848439,4178.90909049,4818.21212073,4150.06060565,5148.93939342,3816.24242386,4841.90909042,74.1818181744,42.0,42.0,?
2017-08-07 12:14:46.188899,4833.66666618,3989.33333293,4495.72727228,4063.51515111,4205.69696928,564.60606055,4235.06060564,754.181818106,4620.39393893,519.272727221,4897.54545406,234.909090886,4558.0606056,3288.7272724,4662.63636317,3329.93939361,5493.57575703,2748.84848457,4440.09090865,519.272727221,4627.09090863,4178.90909049,4815.12121164,4084.12121171,5159.75757524,3816.24242386,4848.60606012,74.1818181744,42.0,42.0,?
2017-08-07 12:14:46.198180,4829.54545406,3989.33333293,4494.69696925,4063.51515111,4202.60606019,564.60606055,4231.45454503,754.181818106,4623.99999954,519.272727221,4895.99999951,234.909090886,4557.54545409,3288.7272724,4662.12121166,3329.93939361,5501.81818127,2748.84848457,4440.09090865,519.272727221,4623.99999954,4178.90909049,4821.81818134,4084.12121171,5162.84848433,3791.51515114,4847.57575709,74.1818181744,42.0,42.0,?
2017-08-07 12:14:46.205541,4825.42424194,3989.33333293,4496.75757531,4063.51515111,4202.60606019,564.60606055,4235.06060564,754.181818106,4633.27272681,519.272727221,4896.51515103,234.909090886,4559.09090864,3288.7272724,4666.24242378,3329.93939361,5505.42424187,2748.84848457,4442.15151471,515.1515151,4619.3636359,4178.90909049,4828.51515103,4084.12121171,5155.63636312,3791.51515114,4845.51515103,74.1818181744,42.0,42.0,?
2017-08-07 12:14:46.212023,4830.06060558,3989.33333293,4499.33333288,4063.51515111,4206.72727231,564.60606055,4238.66666624,754.181818106,4630.18181772,519.272727221,4896.51515103,234.909090886,4558.57575712,3288.7272724,4664.69696923,3329.93939361,5505.42424187,2748.84848457,4439.57575713,515.1515151,4618.84848439,4174.78787837,4822.84848437,4084.12121171,5151.515151,3791.51515114,4849.12121164,74.1818181744,42.0,42.0,?
2017-08-07 12:14:46.225472,4837.27272679,3989.33333293,4504.99999955,4063.51515111,4211.36363594,564.60606055,4235.06060564,754.181818106,4623.99999954,519.272727221,4892.3939389,234.909090886,4558.57575712,3288.7272724,4665.21212075,3329.93939361,5508.51515096,2748.84848457,4438.03030259,515.1515151,4627.60606014,4174.78787837,4824.39393891,4084.12121171,5162.33333282,3791.51515114,4852.21212073,74.1818181744,42.0,42.0,?
2017-08-07 12:14:46.229029,4837.7878783,3989.33333293,4511.18181773,4063.51515111,4217.54545412,564.60606055,4238.66666624,754.181818106,4628.63636317,519.272727221,4899.0909086,234.909090886,4562.69696924,3288.7272724,4672.93939347,3329.93939361,5516.24242369,2748.84848457,4445.75757531,515.1515151,4638.42424196,4174.78787837,4836.75757527,4084.12121171,5173.15151463,3791.51515114,4851.1818177,74.1818181744,42.0,42.0,?
2017-08-07 12:14:46.235671,4834.1818177,3989.33333293,4511.69696925,4063.51515111,4216.51515109,564.60606055,4244.84848442,754.181818106,4636.87878742,519.272727221,4907.33333284,234.909090886,4565.78787833,3288.7272724,4676.54545408,3329.93939361,5521.90909036,2748.84848457,4450.39393895,515.1515151,4634.81818135,4174.78787837,4837.27272679,4084.12121171,5169.03030251,3791.51515114,4851.1818177,74.1818181744,42.0,42.0,?
2017-08-07 12:14:46.248076,4836.75757527,3989.33333293,4510.1515147,4063.51515111,4216.51515109,564.60606055,4240.7272723,754.181818106,4633.78787832,519.272727221,4899.60606012,234.909090886,4563.21212076,3288.7272724,4675.51515105,3329.93939361,5526.03030248,2748.84848457,4449.36363592,515.1515151,4628.63636317,4174.78787837,4832.12121164,4084.12121171,5165.42424191,3791.51515114,4854.7878783,74.1818181744,42.0,42.0,?
2017-08-07 12:14:46.252410,4843.96969649,3989.33333293,4510.66666622,4063.51515111,4221.66666624,564.60606055,4239.18181776,754.181818106,4623.48484802,519.272727221,4893.42424193,234.909090886,4561.66666621,3288.7272724,4678.09090862,3329.93939361,5530.66666611,2748.84848457,4453.99999955,515.1515151,4636.87878742,4174.78787837,4836.24242376,4084.12121171,5174.18181766,3791.51515114,4857.87878739,74.1818181744,42.0,42.0,?
2017-08-07 12:14:46.257971,4843.45454497,3989.33333293,4510.66666622,4063.51515111,4221.15151473,564.60606055,4248.45454503,754.181818106,4624.51515105,519.272727221,4899.0909086,234.909090886,4570.42424197,3288.7272724,4678.09090862,3329.93939361,5535.81818126,2748.84848457,4457.60606016,515.1515151,4644.60606014,4174.78787837,4843.96969649,4084.12121171,5177.78787827,3791.51515114,4859.93939345,74.1818181744,42.0,42.0,?
2017-08-07 12:14:46.268217,4840.87878739,3989.33333293,4513.24242379,4063.51515111,4217.54545412,564.60606055,4250.51515109,754.181818106,4634.30302984,519.272727221,4901.15151466,234.909090886,4571.96969651,3288.7272724,4676.54545408,3329.93939361,5540.96969642,2748.84848457,4456.57575713,515.1515151,4641.51515105,4174.78787837,4846.03030255,4084.12121171,5174.18181766,3791.51515114,4860.45454497,74.1818181744,42.0,42.0,?
2017-08-07 12:14:46.274623,4843.45454497,3989.33333293,4513.75757531,4063.51515111,4225.27272685,564.60606055,4244.33333291,754.181818106,4632.75757529,519.272727221,4898.06060557,234.909090886,4566.30302985,3288.7272724,4679.63636317,3329.93939361,5540.96969642,2748.84848457,4458.63636319,515.1515151,4640.48484802,4174.78787837,4841.90909042,4084.12121171,5175.21212069,3791.51515114,4858.90909042,74.1818181744,42.0,42.0,?
2017-08-07 12:14:46.284041,4842.42424194,3989.33333293,4511.18181773,4063.51515111,4231.45454503,564.60606055,4245.87878745,754.181818106,4619.3636359,519.272727221,4894.96969648,234.909090886,4567.33333288,3288.7272724,4680.15151468,3329.93939361,5539.93939339,2748.84848457,4459.66666622,515.1515151,4641.51515105,4174.78787837,4840.87878739,4084.12121171,5175.72727221,3791.51515114,4860.96969648,74.1818181744,42.0,42.0,?
2017-08-07 12:14:46.289983,4839.84848436,3989.33333293,4516.8484844,4063.51515111,4226.8181814,564.60606055,4251.54545412,754.181818106,4621.42424196,519.272727221,4894.96969648,234.909090886,4571.96969651,3288.7272724,4681.18181771,3329.93939361,5545.09090854,2748.84848457,4460.69696925,515.1515151,4637.39393893,4174.78787837,4848.60606012,4084.12121171,5172.63636312,3791.51515114,4866.12121163,74.1818181744,42.0,42.0,?
2017-08-07 12:14:46.297913,4847.06060558,3989.33333293,4525.60606015,4063.51515111,4227.84848443,564.60606055,4249.99999958,754.181818106,4638.42424196,519.272727221,4904.24242375,234.909090886,4580.72727227,3288.7272724,4691.48484802,3329.93939361,5551.27272672,2748.84848457,4467.39393895,515.1515151,4642.03030257,4174.78787837,4851.69696921,4084.12121171,5177.78787827,3791.51515114,4865.60606012,74.1818181744,42.0,42.0,?
2017-08-07 12:14:46.307172,4853.24242376,3989.33333293,4527.66666621,4063.51515111,4235.06060564,564.60606055,4251.54545412,754.181818106,4646.15151469,519.272727221,4917.12121163,234.909090886,4586.39393894,3288.7272724,4698.69696923,3329.93939361,5557.96969641,2748.84848457,4469.45454501,515.1515151,4654.90909044,4174.78787837,4851.1818177,4084.12121171,5188.09090857,3791.51515114,4864.57575709,74.1818181744,42.0,42.0,?
2017-08-07 12:14:46.313373,4851.69696921,3989.33333293,4526.63636318,4063.51515111,4238.15151473,564.60606055,4254.1212117,754.181818106,4639.96969651,519.272727221,4917.63636314,234.909090886,4581.24242378,3288.7272724,4691.99999953,3329.93939361,5562.60606005,2748.84848457,4469.45454501,515.1515151,4661.09090862,4174.78787837,4853.75757527,4084.12121171,5194.27272675,3791.51515114,4870.24242376,74.1818181744,42.0,42.0,?
2017-08-07 12:14:46.322934,4851.69696921,3989.33333293,4527.66666621,4063.51515111,4236.09090867,564.60606055,4252.06060564,754.181818106,4634.30302984,519.272727221,4909.90909042,234.909090886,4572.99999954,3288.7272724,4685.30302983,3329.93939361,5563.12121156,2748.84848457,4472.5454541,515.1515151,4655.42424196,4174.78787837,4853.24242376,4084.12121171,5190.66666615,3791.51515114,4869.72727224,74.1818181744,42.0,42.0,?
2017-08-07 12:14:46.332344,4849.12121164,3989.33333293,4524.57575712,4063.51515111,4229.39393897,564.60606055,4249.48484806,754.181818106,4637.39393893,519.272727221,4911.45454496,234.909090886,4575.0606056,3288.7272724,4689.93939347,3329.93939361,5562.09090853,2748.84848457,4468.93939349,515.1515151,4648.72727226,4174.78787837,4849.12121164,4084.12121171,5178.8181813,3791.51515114,4865.0909086,74.1818181744,42.0,42.0,?
2017-08-07 12:14:46.340478,4848.60606012,3989.33333293,4523.54545409,4063.51515111,4227.84848443,564.60606055,4249.99999958,754.181818106,4640.48484802,519.272727221,4917.12121163,234.909090886,4581.7575753,3288.7272724,4692.51515105,3329.93939361,5565.18181763,2748.84848457,4464.81818137,515.1515151,4647.69696923,4174.78787837,4848.09090861,4084.12121171,5176.24242372,3791.51515114,4864.57575709,74.1818181744,42.0,42.0,?
2017-08-07 12:14:46.349198,4851.1818177,3989.33333293,4527.1515147,4063.51515111,4231.96969655,564.60606055,4249.99999958,754.181818106,4636.87878742,519.272727221,4914.03030254,234.909090886,4583.81818136,3288.7272724,4687.87878741,3329.93939361,5567.7575752,2748.84848457,4469.96969652,515.1515151,4651.30302984,4174.78787837,4850.15151467,4084.12121171,5187.57575706,3791.51515114,4866.12121163,74.1818181744,42.0,42.0,?
2017-08-07 12:14:46.353234,4849.63636315,3989.33333293,4528.69696924,4063.51515111,4236.60606018,564.60606055,4249.99999958,754.181818106,4635.84848438,519.272727221,4910.42424193,234.909090886,4584.84848439,3288.7272724,4689.42424196,3329.93939361,5571.87878732,2748.84848457,4478.21212076,515.1515151,4655.42424196,4174.78787837,4852.21212073,4084.12121171,5191.69696918,3791.51515114,4866.63636315,74.1818181744,42.0,42.0,?
2017-08-07 12:14:46.360377,4846.54545406,3989.33333293,4528.69696924,4063.51515111,4239.18181776,564.60606055,4251.54545412,754.181818106,4639.96969651,519.272727221,4914.03030254,234.909090886,4587.42424197,3288.7272724,4696.12121165,3329.93939361,5579.60606005,2748.84848457,4480.78787834,515.1515151,4653.87878741,4174.78787837,4852.72727224,4084.12121171,5183.45454494,3791.51515114,4864.57575709,74.1818181744,42.0,42.0,?
2017-08-07 12:14:46.375186,4846.54545406,3989.33333293,4527.1515147,4063.51515111,4239.69696927,564.60606055,4250.51515109,754.181818106,4642.03030257,519.272727221,4916.0909086,234.909090886,4587.42424197,3288.7272724,4697.15151468,3329.93939361,5584.24242368,2748.84848457,4477.69696925,515.1515151,4650.27272681,4174.78787837,4849.63636315,4084.12121171,5178.30302979,3791.51515114,4863.54545406,74.1818181744,42.0,42.0,?
2017-08-07 12:14:46.379713,4851.69696921,3989.33333293,4533.8484844,4063.51515111,4242.78787836,564.60606055,4250.51515109,754.181818106,4641.51515105,519.272727221,4912.48484799,234.909090886,4585.87878742,3288.7272724,4691.99999953,3329.93939361,5581.15151459,2748.84848457,4474.09090864,515.1515151,4653.87878741,4174.78787837,4850.66666618,4084.12121171,5183.45454494,3791.51515114,4865.60606012,74.1818181744,42.0,42.0,?
2017-08-07 12:14:46.383950,4855.81818133,3989.33333293,4542.60606015,4063.51515111,4246.39393897,564.60606055,4253.09090867,754.181818106,4637.90909045,519.272727221,4910.42424193,234.909090886,4586.90909045,3288.7272724,4686.84848438,3329.93939361,5575.99999944,2748.84848457,4469.96969652,515.1515151,4654.90909044,4174.78787837,4852.21212073,4084.12121171,5188.09090857,3791.51515114,4868.1818177,74.1818181744,42.0,42.0,?
2017-08-07 12:14:46.391030,4851.69696921,3989.33333293,4535.90909046,4063.51515111,4244.84848442,564.60606055,4253.09090867,754.181818106,4632.75757529,519.272727221,4911.96969648,234.909090886,4585.36363591,3288.7272724,4687.87878741,3329.93939361,5579.09090853,2748.84848457,4474.60606016,515.1515151,4651.30302984,4174.78787837,4849.63636315,4084.12121171,5186.54545403,3791.51515114,4868.69696921,74.1818181744,42.0,42.0,?
2017-08-07 12:14:46.399814,4849.63636315,3989.33333293,4525.60606015,4063.51515111,4244.33333291,564.60606055,4251.03030261,754.181818106,4636.3636359,519.272727221,4912.48484799,234.909090886,4581.24242378,3288.7272724,4694.06060559,3329.93939361,5586.81818126,2748.84848457,4482.33333289,515.1515151,4653.3636359,4174.78787837,4852.21212073,4084.12121171,5183.96969645,3791.51515114,4868.69696921,74.1818181744,42.0,42.0,?
2017-08-07 12:14:46.407634,4857.36363588,3989.33333293,4527.66666621,4063.51515111,4249.99999958,564.60606055,4252.06060564,754.181818106,4642.03030257,519.272727221,4915.06060557,234.909090886,4584.33333287,3288.7272724,4695.09090862,3329.93939361,5591.4545449,2748.84848457,4480.78787834,515.1515151,4658.51515105,4174.78787837,4856.33333285,4084.12121171,5187.57575706,3791.51515114,4867.15151466,74.1818181744,42.0,42.0,?
2017-08-07 12:14:46.415299,4860.45454497,3989.33333293,4530.7575753,4063.51515111,4244.84848442,564.60606055,4253.60606018,754.181818106,4639.45454499,519.272727221,4916.0909086,234.909090886,4589.99999954,3288.7272724,4694.57575711,3329.93939361,5588.87878732,2748.84848457,4473.57575713,515.1515151,4657.99999953,4174.78787837,4853.24242376,4084.12121171,5192.72727221,3791.51515114,4867.15151466,74.1818181744,42.0,42.0,?
2017-08-07 12:14:46.424926,4852.72727224,3989.33333293,4527.66666621,4063.51515111,4236.60606018,564.60606055,4252.06060564,754.181818106,4637.90909045,519.272727221,4915.06060557,234.909090886,4585.36363591,3288.7272724,4697.6666662,3329.93939361,5587.84848429,2748.84848457,4470.99999955,515.1515151,4650.78787832,4174.78787837,4848.09090861,4084.12121171,5184.99999948,3791.51515114,4866.12121163,74.1818181744,42.0,42.0,?
2017-08-07 12:14:46.429959,4848.60606012,3989.33333293,4526.12121167,4063.51515111,4237.1212117,564.60606055,4251.03030261,754.181818106,4643.0606056,519.272727221,4919.18181769,234.909090886,4579.18181772,3288.7272724,4696.63636317,3329.93939361,5590.42424187,2748.84848457,4471.51515107,515.1515151,4641.51515105,4174.78787837,4847.57575709,4084.12121171,5172.1212116,3791.51515114,4858.90909042,74.1818181744,42.0,42.0,?
2017-08-07 12:14:46.437970,4849.63636315,3989.33333293,4526.12121167,4063.51515111,4234.54545412,564.60606055,4251.03030261,754.181818106,4649.75757529,519.272727221,4926.3939389,234.909090886,4583.30302984,3288.7272724,4693.54545408,3329.93939361,5591.96969641,2748.84848457,4472.03030258,515.1515151,4642.03030257,4174.78787837,4846.54545406,4084.12121171,5174.69696918,3791.51515114,4857.87878739,74.1818181744,42.0,42.0,?
2017-08-07 12:14:46.448629,4857.36363588,3989.33333293,4527.66666621,4063.51515111,4233.51515109,564.60606055,4251.54545412,754.181818106,4650.27272681,519.272727221,4927.42424193,234.909090886,4591.03030257,3288.7272724,4696.63636317,3329.93939361,5597.63636308,2748.84848457,4478.72727228,515.1515151,4650.27272681,4174.78787837,4848.60606012,4084.12121171,5184.48484797,3791.51515114,4866.12121163,74.1818181744,42.0,42.0,?
