Timestamp,F3 Value,F3 Quality,FC5 Value,FC5 Quality,F7 Value,F7 Quality,T7 Value,T7 Quality,P7 Value,P7 Quality,O1 Value,O1 Quality,O2 Value,O2 Quality,P8 Value,P8 Quality,T8 Value,T8 Quality,F8 Value,F8 Quality,AF4 Value,AF4 Quality,FC6 Value,FC6 Quality,F4 Value,F4 Quality,AF3 Value,AF3 Quality,X Value,Y Value,Z Value
2017-08-07 12:15:46.966729,4472.03030258,0,4401.45454501,0,3818.30302992,0,3834.27272689,0,4231.45454503,0,4472.03030258,0,4181.48484807,0,4289.66666624,0,5004.18181768,0,3992.93939354,0,4323.66666623,0,4250.51515109,0,4786.78787831,0,4423.09090865,0,42.0,42.0,?
2017-08-07 12:15:46.972992,4467.90909046,0,4156.24242383,0,3832.21212083,0,3818.81818144,0,4228.87878746,0,4439.06060562,0,4168.60606019,0,4646.6666662,0,4950.60606011,0,4102.15151474,0,4406.60606017,0,4245.36363594,0,4776.48484801,0,4489.5454541,0,42.0,42.0,?
2017-08-07 12:15:46.976031,4465.8484844,0,4156.24242383,0,3833.24242386,0,3818.81818144,0,4219.09090867,0,4424.12121168,0,4160.36363595,0,4640.48484802,0,4953.18181769,0,4091.33333292,0,4399.39393895,0,4231.45454503,0,4767.21212074,0,4481.30302985,0,42.0,42.0,?
2017-08-07 12:15:46.979407,4466.36363592,0,4157.27272686,0,3828.09090871,0,3816.75757538,0,4215.99999958,0,4431.33333289,0,4167.06060564,0,4647.69696923,0,4963.48484799,0,4093.9090905,0,4404.03030259,0,4233.51515109,0,4773.39393892,0,4478.21212076,0,42.0,42.0,?
2017-08-07 12:15:46.988511,4463.78787834,0,4157.27272686,0,3822.93939356,0,3815.72727235,0,4230.424242,0,4443.18181774,0,4170.15151473,0,4649.24242378,0,4956.27272678,0,4098.54545414,0,4407.6363632,0,4242.78787836,0,4779.06060558,0,4470.48484804,0,42.0,42.0,?
2017-08-07 12:15:46.993462,4463.78787834,0,4156.24242383,0,3823.45454507,0,3815.72727235,0,4237.1212117,0,4440.09090865,0,4162.93939352,0,4644.60606014,0,4951.63636314,0,4103.18181777,0,4398.36363592,0,4242.78787836,0,4772.8787874,0,4460.69696925,0,42.0,42.0,?
2017-08-07 12:15:46.996045,4469.45454501,0,4161.39393898,0,3823.45454507,0,3815.72727235,0,4225.78787837,0,4431.33333289,0,4156.75757534,0,4644.60606014,0,4968.63636314,0,4109.36363595,0,4389.60606017,0,4238.15151473,0,4768.24242377,0,4458.63636319,0,42.0,42.0,?
2017-08-07 12:15:46.999369,4474.09090864,0,4168.60606019,0,3823.45454507,0,3815.72727235,0,4221.66666624,0,4427.21212077,0,4157.78787837,0,4641.51515105,0,4974.30302981,0,4109.36363595,0,4391.15151471,0,4240.7272723,0,4771.33333286,0,4462.2424238,0,42.0,42.0,?
2017-08-07 12:15:47.002191,4469.96969652,0,4167.57575716,0,3826.54545416,0,3815.21212083,0,4229.39393897,0,4435.96969653,0,4164.99999958,0,4637.39393893,0,4961.42424193,0,4105.75757535,0,4396.81818138,0,4248.45454503,0,4776.99999952,0,4457.09090865,0,42.0,42.0,?
2017-08-07 12:15:47.005022,4461.72727228,0,4165.5151511,0,3828.09090871,0,3815.21212083,0,4241.24242382,0,4449.36363592,0,4173.24242383,0,4636.87878742,0,4962.45454496,0,4096.99999959,0,4397.84848441,0,4253.60606018,0,4777.51515104,0,4443.18181774,0,42.0,42.0,?
2017-08-07 12:15:47.008222,4459.66666622,0,4170.15151473,0,3827.57575719,0,3816.24242386,0,4247.424242,0,4451.42424198,0,4174.27272686,0,4636.87878742,0,4975.84848435,0,4088.75757535,0,4390.12121168,0,4249.99999958,0,4773.39393892,0,4435.96969653,0,42.0,42.0,?
2017-08-07 12:15:47.011071,4461.72727228,0,4172.21212079,0,3831.69696931,0,3817.27272689,0,4241.75757533,0,4445.75757531,0,4171.69696928,0,4638.93939348,0,4974.81818132,0,4086.18181777,0,4387.03030259,0,4239.69696927,0,4770.81818134,0,4434.9393935,0,42.0,42.0,?
2017-08-07 12:15:47.014291,4463.27272683,0,4171.18181776,0,3835.30302992,0,3818.30302992,0,4239.69696927,0,4445.2424238,0,4176.84848443,0,4640.48484802,0,4973.27272678,0,4083.09090868,0,4390.6363632,0,4240.21212079,0,4775.45454498,0,4434.42424198,0,42.0,42.0,?
2017-08-07 12:15:47.027105,4462.75757531,0,4174.27272686,0,3834.27272689,0,3818.81818144,0,4246.39393897,0,4450.90909046,0,4186.1212117,0,4642.03030257,0,4982.54545405,0,4083.09090868,0,4393.72727229,0,4254.1212117,0,4780.60606013,0,4429.78787834,0,42.0,42.0,?
2017-08-07 12:15:47.030434,4463.27272683,0,4174.78787837,0,3838.39393901,0,3818.81818144,0,4243.30302988,0,4450.90909046,0,4191.27272685,0,4644.60606014,0,4987.18181768,0,4086.18181777,0,4396.30302986,0,4261.33333291,0,4784.21212073,0,4429.78787834,0,42.0,42.0,?
2017-08-07 12:15:47.033482,4465.8484844,0,4172.72727231,0,3843.54545416,0,3820.8787875,0,4232.99999958,0,4442.15151471,0,4185.60606019,0,4639.96969651,0,4985.12121162,0,4083.6060602,0,4394.75757532,0,4252.57575715,0,4787.30302982,0,4431.84848441,0,42.0,42.0,?
2017-08-07 12:15:47.037913,4462.75757531,0,4178.39393898,0,3840.45454507,0,3820.8787875,0,4232.48484806,0,4440.60606016,0,4172.72727231,0,4625.03030257,0,4982.54545405,0,4071.75757535,0,4384.96969653,0,4241.75757533,0,4778.54545407,0,4421.03030259,0,42.0,42.0,?
2017-08-07 12:15:47.040873,4461.21212077,0,4185.60606019,0,3840.45454507,0,3817.78787841,0,4239.18181776,0,4447.81818137,0,4164.48484807,0,4614.72727227,0,4976.87878738,0,4063.51515111,0,4376.21212077,0,4235.06060564,0,4768.24242377,0,4410.21212077,0,42.0,42.0,?
2017-08-07 12:15:47.045338,4464.81818137,0,4187.15151473,0,3843.54545416,0,3816.75757538,0,4243.81818139,0,4448.8484844,0,4171.18181776,0,4615.7575753,0,4970.18181768,0,4060.93939353,0,4377.2424238,0,4229.90909049,0,4771.33333286,0,4412.27272683,0,42.0,42.0,?
2017-08-07 12:15:47.050729,4463.78787834,0,4185.09090867,0,3839.42424204,0,3817.27272689,0,4246.90909048,0,4451.42424198,0,4186.1212117,0,4620.90909045,0,4975.33333284,0,4062.99999959,0,4379.81818138,0,4232.99999958,0,4778.54545407,0,4413.81818138,0,42.0,42.0,?
2017-08-07 12:15:47.058399,4459.15151471,0,4187.15151473,0,3837.87878749,0,3817.27272689,0,4248.45454503,0,4463.27272683,0,4192.30302988,0,4627.09090863,0,4987.18181768,0,4064.54545414,0,4380.3333329,0,4241.24242382,0,4776.99999952,0,4408.66666623,0,42.0,42.0,?
2017-08-07 12:15:47.070326,4460.69696925,0,4190.75757534,0,3843.54545416,0,3819.84848447,0,4250.51515109,0,4461.21212077,0,4189.21212079,0,4626.0606056,0,4994.90909041,0,4060.93939353,0,4379.81818138,0,4241.75757533,0,4770.81818134,0,4408.15151471,0,42.0,42.0,?
2017-08-07 12:15:47.080695,4462.2424238,0,4190.75757534,0,3846.12121174,0,3820.8787875,0,4251.54545412,0,4448.33333289,0,4185.09090867,0,4618.84848439,0,4997.48484799,0,4062.99999959,0,4380.84848441,0,4242.27272685,0,4773.90909043,0,4410.72727229,0,42.0,42.0,?
2017-08-07 12:15:47.088967,4463.27272683,0,4191.27272685,0,3844.57575719,0,3819.84848447,0,4254.63636321,0,4450.90909046,0,4183.54545413,0,4614.72727227,0,4994.90909041,0,4070.21212081,0,4383.9393935,0,4247.93939351,0,4784.72727225,0,4410.72727229,0,42.0,42.0,?
2017-08-07 12:15:47.098620,4453.48484804,0,4203.1212117,0,3845.09090871,0,3822.42424204,0,4274.21212078,0,4467.39393895,0,4184.57575716,0,4615.24242378,0,4994.90909041,0,4056.81818141,0,4379.81818138,0,4240.7272723,0,4784.21212073,0,4408.15151471,0,42.0,42.0,?
2017-08-07 12:15:47.099420,4448.8484844,0,4202.60606019,0,3838.39393901,0,3819.84848447,0,4274.21212078,0,4478.21212076,0,4196.93939352,0,4624.51515105,0,4997.48484799,0,4051.66666626,0,4363.3333329,0,4240.21212079,0,4759.48484801,0,4394.2424238,0,42.0,42.0,?
2017-08-07 12:15:47.106797,4448.8484844,0,4202.60606019,0,3838.39393901,0,3819.84848447,0,4274.21212078,0,4478.21212076,0,4196.93939352,0,4624.51515105,0,4997.48484799,0,4051.66666626,0,4363.3333329,0,4240.21212079,0,4759.48484801,0,4394.2424238,0,42.0,42.0,?
2017-08-07 12:15:47.126742,4457.60606016,0,4202.60606019,0,3840.96969659,0,3817.78787841,0,4273.18181775,0,4477.18181773,0,4210.84848443,0,4630.69696923,0,4996.96969647,0,4056.81818141,0,4371.06060562,0,4243.30302988,0,4774.42424195,0,4401.45454501,0,42.0,42.0,?
2017-08-07 12:15:47.131656,4464.30302986,4022.3030299,4206.72727231,0,3847.15151477,0,3818.30302992,0,4276.27272685,0,4481.81818137,0,4220.63636321,0,4630.18181772,0,4998.51515102,0,4060.42424202,0,4380.3333329,0,4245.87878745,0,4785.24242376,0,4409.18181774,0,42.0,42.0,?
2017-08-07 12:15:47.133605,4461.21212077,4022.3030299,4207.75757534,4079.99999959,3845.60606022,0,3817.78787841,0,4280.90909048,0,4493.1515147,0,4210.84848443,0,4628.63636317,0,5005.21212071,0,4065.57575717,0,4381.87878744,0,4252.06060564,0,4775.96969649,0,4408.15151471,0,42.0,42.0,?
2017-08-07 12:15:47.138281,4460.69696925,4022.3030299,4205.69696928,4079.99999959,3843.03030265,0,3817.27272689,0,4282.96969654,0,4499.33333288,0,4208.78787837,0,4627.60606014,0,5004.6969692,0,4069.18181777,0,4380.84848441,0,4249.99999958,0,4775.45454498,0,4407.12121168,189.575757557,42.0,42.0,?
2017-08-07 12:15:47.144834,4462.2424238,4022.3030299,4205.18181776,4079.99999959,3845.60606022,461.57575753,3818.30302992,0,4282.45454503,0,4496.24242379,0,4219.60606018,0,4627.09090863,0,4999.54545405,0,4069.18181777,0,4384.45454502,0,4243.30302988,0,4788.84848437,0,4408.15151471,189.575757557,42.0,42.0,?
2017-08-07 12:15:47.152211,4461.21212077,4022.3030299,4204.15151473,4079.99999959,3844.57575719,461.57575753,3817.27272689,737.696969623,4282.45454503,0,4493.66666622,0,4218.57575715,0,4628.12121166,0,5002.12121162,0,4069.18181777,0,4382.90909047,0,4240.21212079,0,4787.30302982,0,4404.03030259,189.575757557,42.0,42.0,?
2017-08-07 12:15:47.162027,4462.75757531,4022.3030299,4203.63636322,4079.99999959,3840.96969659,461.57575753,3815.21212083,737.696969623,4280.39393897,597.575757516,4494.69696925,0,4212.90909049,0,4621.42424196,0,4998.51515102,0,4068.15151474,0,4379.81818138,0,4238.66666624,0,4779.06060558,0,4401.45454501,189.575757557,42.0,42.0,?
2017-08-07 12:15:47.171071,4466.36363592,4022.3030299,4203.63636322,4079.99999959,3844.06060568,461.57575753,3815.72727235,737.696969623,4276.27272685,597.575757516,4494.18181773,461.57575753,4215.48484806,0,4614.72727227,0,4988.21212071,0,4064.54545414,0,4383.9393935,0,4235.57575715,0,4783.1818177,0,4406.60606017,189.575757557,42.0,42.0,?
2017-08-07 12:15:47.176976,4462.2424238,4022.3030299,4203.1212117,4079.99999959,3841.99999962,461.57575753,3817.27272689,737.696969623,4272.66666624,597.575757516,4492.63636319,461.57575753,4208.78787837,3284.60606028,4609.57575711,0,4986.15151465,0,4058.87878747,0,4376.72727229,0,4224.24242382,0,4781.12121164,0,4407.12121168,189.575757557,42.0,42.0,?
2017-08-07 12:15:47.182969,4460.18181774,4022.3030299,4201.06060564,4079.99999959,3834.7878784,461.57575753,3812.12121174,737.696969623,4268.0303026,597.575757516,4493.66666622,461.57575753,4197.45454503,3284.60606028,4591.03030257,3292.84848452,4977.90909041,0,4050.12121172,0,4365.90909047,0,4213.424242,0,4775.96969649,0,4400.42424198,189.575757557,42.0,42.0,?
2017-08-07 12:15:47.193851,4468.93939349,4022.3030299,4201.57575716,4079.99999959,3835.81818143,461.57575753,3810.57575719,737.696969623,4263.39393897,597.575757516,4494.18181773,461.57575753,4197.96969655,3284.60606028,4577.12121166,3292.84848452,4963.48484799,2983.75757546,4049.09090869,0,4377.2424238,0,4214.96969655,0,4786.27272679,0,4405.57575714,189.575757557,42.0,42.0,?
2017-08-07 12:15:47.205356,4474.09090864,4022.3030299,4204.66666625,4079.99999959,3844.06060568,461.57575753,3814.1818178,737.696969623,4261.84848442,597.575757516,4490.57575713,461.57575753,4203.63636322,3284.60606028,4583.81818136,3292.84848452,4969.66666617,2983.75757546,4059.39393899,531.636363583,4389.09090865,0,4220.1212117,0,4793.48484801,0,4417.9393935,189.575757557,42.0,42.0,?
2017-08-07 12:15:47.207446,4462.2424238,4022.3030299,4202.60606019,4079.99999959,3840.96969659,461.57575753,3815.21212083,737.696969623,4274.7272723,597.575757516,4508.60606016,461.57575753,4222.18181776,3284.60606028,4602.3636359,3292.84848452,4987.18181768,2983.75757546,4058.87878747,531.636363583,4374.66666623,16.4848484832,4225.78787837,4203.63636322,4785.24242376,0,4404.54545411,189.575757557,42.0,42.0,?
2017-08-07 12:15:47.218981,4462.2424238,4022.3030299,4202.60606019,4079.99999959,3840.96969659,461.57575753,3815.21212083,737.696969623,4274.7272723,597.575757516,4508.60606016,461.57575753,4222.18181776,3284.60606028,4602.3636359,3292.84848452,4987.18181768,2983.75757546,4058.87878747,531.636363583,4374.66666623,16.4848484832,4225.78787837,4203.63636322,4785.24242376,0,4404.54545411,189.575757557,42.0,42.0,?
2017-08-07 12:15:47.222238,4467.90909046,4022.3030299,4203.1212117,4079.99999959,3846.12121174,461.57575753,3818.81818144,737.696969623,4287.60606018,597.575757516,4519.42424197,461.57575753,4225.78787837,3284.60606028,4605.45454499,3292.84848452,4985.12121162,2983.75757546,4061.96969656,531.636363583,4385.99999956,16.4848484832,4237.1212117,4203.63636322,4787.30302982,3828.60606022,4409.69696926,189.575757557,42.0,42.0,?
2017-08-07 12:15:47.230541,4472.03030258,4022.3030299,4204.15151473,4079.99999959,3847.66666628,461.57575753,3819.84848447,737.696969623,4287.60606018,597.575757516,4516.33333288,461.57575753,4221.15151473,3284.60606028,4600.30302984,3292.84848452,4981.51515102,2983.75757546,4063.51515111,539.878787825,4386.51515108,16.4848484832,4229.39393897,4203.63636322,4787.81818134,3828.60606022,4412.27272683,189.575757557,42.0,42.0,?
2017-08-07 12:15:47.240047,4466.87878743,4022.3030299,4203.1212117,4079.99999959,3843.03030265,461.57575753,3817.27272689,737.696969623,4276.78787836,597.575757516,4502.93939349,461.57575753,4208.27272685,3284.60606028,4589.99999954,3292.84848452,4975.84848435,2983.75757546,4058.36363596,539.878787825,4384.45454502,20.606060604,4222.69696927,4203.63636322,4784.21212073,3828.60606022,4407.6363632,189.575757557,42.0,42.0,?
2017-08-07 12:15:47.249092,4468.93939349,4022.3030299,4202.09090867,4079.99999959,3846.12121174,461.57575753,3816.75757538,737.696969623,4270.60606018,597.575757516,4495.72727228,461.57575753,4203.63636322,3284.60606028,4584.33333287,3292.84848452,4977.3939389,2983.75757546,4055.78787838,539.878787825,4389.60606017,20.606060604,4231.45454503,4215.99999958,4782.66666619,3828.60606022,4409.69696926,189.575757557,42.0,42.0,?
2017-08-07 12:15:47.254599,4473.06060561,4022.3030299,4202.60606019,4079.99999959,3850.24242386,461.57575753,3817.78787841,737.696969623,4270.60606018,597.575757516,4494.69696925,461.57575753,4209.30302988,3284.60606028,4586.39393894,3292.84848452,4983.57575708,2983.75757546,4059.9090905,539.878787825,4396.81818138,20.606060604,4236.60606018,4215.99999958,4792.96969649,3828.60606022,4414.33333289,189.575757557,42.0,42.0,?
2017-08-07 12:15:47.262635,4472.5454541,4022.3030299,4204.15151473,4079.99999959,3848.69696931,461.57575753,3819.33333295,737.696969623,4265.96969654,597.575757516,4487.48484804,461.57575753,4206.72727231,3284.60606028,4584.33333287,3292.84848452,4988.21212071,2983.75757546,4066.09090868,539.878787825,4397.33333289,20.606060604,4234.03030261,4215.99999958,4802.24242376,3828.60606022,4413.30302986,189.575757557,42.0,42.0,?
2017-08-07 12:15:47.274936,4471.51515107,4022.3030299,4191.27272685,4079.99999959,3848.69696931,461.57575753,3813.66666629,737.696969623,4260.30302988,597.575757516,4476.1515147,461.57575753,4201.57575716,3284.60606028,4566.81818136,3292.84848452,4974.30302981,2983.75757546,4061.45454505,539.878787825,4391.15151471,20.606060604,4227.33333291,4215.99999958,4787.30302982,3828.60606022,4411.75757532,189.575757557,42.0,42.0,?
2017-08-07 12:15:47.279467,4471.51515107,4022.3030299,4191.27272685,4079.99999959,3848.69696931,461.57575753,3813.66666629,737.696969623,4260.30302988,597.575757516,4478.72727228,461.57575753,4201.57575716,3284.60606028,4566.81818136,3292.84848452,4974.30302981,2983.75757546,4061.45454505,539.878787825,4391.15151471,20.606060604,4227.33333291,4215.99999958,4787.30302982,3828.60606022,4410.21212077,189.575757557,42.0,42.0,?
2017-08-07 12:15:47.289999,4465.8484844,4022.3030299,4189.72727231,4079.99999959,3845.09090871,461.57575753,3814.69696932,737.696969623,4263.90909048,597.575757516,4490.57575713,461.57575753,4206.21212079,3284.60606028,4568.87878742,3292.84848452,4972.24242375,2983.75757546,4055.78787838,539.878787825,4387.03030259,20.606060604,4219.60606018,4215.99999958,4786.78787831,3828.60606022,4408.15151471,189.575757557,42.0,42.0,?
2017-08-07 12:15:47.293360,4461.72727228,4022.3030299,4196.424242,4079.99999959,3846.12121174,461.57575753,3817.27272689,737.696969623,4269.06060563,597.575757516,4497.27272682,461.57575753,4207.24242382,3284.60606028,4566.81818136,3292.84848452,4977.90909041,2983.75757546,4054.75757535,539.878787825,4379.81818138,20.606060604,4224.24242382,4215.99999958,4781.63636316,3828.60606022,4405.57575714,189.575757557,42.0,42.0,?
2017-08-07 12:15:47.306337,4463.27272683,4022.3030299,4200.54545413,4079.99999959,3845.09090871,461.57575753,3817.27272689,737.696969623,4274.21212078,597.575757516,4503.454545,461.57575753,4215.48484806,3284.60606028,4565.78787833,3292.84848452,4974.81818132,2983.75757546,4054.24242384,539.878787825,4378.27272683,20.606060604,4230.424242,4215.99999958,4776.99999952,3828.60606022,4400.42424198,189.575757557,42.0,42.0,?
2017-08-07 12:15:47.310938,4461.21212077,4022.3030299,4202.09090867,4079.99999959,3841.99999962,461.57575753,3816.24242386,737.696969623,4274.7272723,597.575757516,4510.1515147,461.57575753,4221.66666624,3284.60606028,4574.03030257,3292.84848452,4975.84848435,2983.75757546,4057.84848444,539.878787825,4379.81818138,20.606060604,4230.424242,4215.99999958,4775.45454498,3828.60606022,4398.36363592,189.575757557,42.0,42.0,?
2017-08-07 12:15:47.316525,4460.18181774,4022.3030299,4202.09090867,4079.99999959,3844.57575719,461.57575753,3817.27272689,737.696969623,4274.7272723,597.575757516,4509.63636319,461.57575753,4222.69696927,3284.60606028,4581.24242378,3292.84848452,4988.72727223,2983.75757546,4067.63636323,539.878787825,4379.81818138,20.606060604,4238.66666624,4215.99999958,4774.42424195,3828.60606022,4401.96969653,189.575757557,42.0,42.0,?
2017-08-07 12:15:47.325356,4464.81818137,4022.3030299,4202.60606019,4079.99999959,3849.21212083,461.57575753,3819.84848447,737.696969623,4275.75757533,597.575757516,4502.42424197,461.57575753,4220.63636321,3284.60606028,4578.66666621,3292.84848452,4990.27272677,2983.75757546,4073.81818141,539.878787825,4385.99999956,20.606060604,4249.99999958,4215.99999958,4782.66666619,3828.60606022,4407.6363632,189.575757557,42.0,42.0,?
2017-08-07 12:15:47.332420,4467.90909046,4022.3030299,4213.424242,4079.99999959,3850.24242386,461.57575753,3820.8787875,737.696969623,4271.63636321,597.575757516,4496.24242379,461.57575753,4210.84848443,3284.60606028,4571.454545,3292.84848452,4985.12121162,2983.75757546,4074.33333293,539.878787825,4393.72727229,20.606060604,4250.51515109,4215.99999958,4791.42424195,3828.60606022,4413.30302986,189.575757557,42.0,42.0,?
2017-08-07 12:15:47.340639,4468.42424198,4022.3030299,4221.66666624,4079.99999959,3851.27272689,461.57575753,3821.39393901,737.696969623,4267.51515109,597.575757516,4493.66666622,461.57575753,4202.09090867,3284.60606028,4563.72727227,3292.84848452,4988.21212071,2983.75757546,4074.84848444,539.878787825,4392.69696926,20.606060604,4245.36363594,4215.99999958,4786.78787831,3828.60606022,4415.36363592,189.575757557,42.0,42.0,?
2017-08-07 12:15:47.348307,4469.45454501,4022.3030299,4210.84848443,4079.99999959,3849.72727234,461.57575753,3819.33333295,737.696969623,4265.45454503,597.575757516,4491.60606016,461.57575753,4205.69696928,3284.60606028,4562.69696924,3292.84848452,4989.24242374,2983.75757546,4078.45454505,539.878787825,4392.18181774,20.606060604,4245.36363594,4215.99999958,4783.69696922,3828.60606022,4415.87878744,189.575757557,42.0,42.0,?
2017-08-07 12:15:47.355160,4467.39393895,4022.3030299,4202.09090867,4079.99999959,3846.63636325,461.57575753,3812.63636326,737.696969623,4255.66666624,597.575757516,4490.06060561,461.57575753,4206.72727231,3284.60606028,4560.63636318,3292.84848452,4977.3939389,2983.75757546,4073.81818141,539.878787825,4392.18181774,20.606060604,4240.7272723,4215.99999958,4784.72727225,3828.60606022,4410.21212077,189.575757557,42.0,42.0,?
2017-08-07 12:15:47.364842,4462.2424238,4022.3030299,4206.21212079,4079.99999959,3841.99999962,461.57575753,3807.99999962,737.696969623,4249.48484806,597.575757516,4484.90909046,461.57575753,4200.54545413,3284.60606028,4549.30302985,3292.84848452,4963.48484799,2983.75757546,4063.51515111,539.878787825,4382.90909047,20.606060604,4232.99999958,4215.99999958,4774.93939346,3828.60606022,4401.96969653,189.575757557,42.0,42.0,?
2017-08-07 12:15:47.371322,4460.18181774,4022.3030299,4206.72727231,4079.99999959,3839.93939356,461.57575753,3807.99999962,737.696969623,4253.09090867,597.575757516,4483.87878743,461.57575753,4200.03030261,3284.60606028,4541.57575712,3292.84848452,4961.93939344,2983.75757546,4056.3030299,539.878787825,4372.09090865,20.606060604,4237.63636321,4215.99999958,4764.63636316,3828.60606022,4399.90909047,189.575757557,42.0,42.0,?
2017-08-07 12:15:47.379323,4456.57575713,4022.3030299,4202.09090867,4079.99999959,3841.4848481,461.57575753,3805.93939356,737.696969623,4256.18181776,597.575757516,4491.09090864,461.57575753,4204.15151473,3284.60606028,4543.63636318,3292.84848452,4964.51515102,2983.75757546,4053.72727232,539.878787825,4370.03030259,20.606060604,4243.81818139,4215.99999958,4764.63636316,3828.60606022,4400.42424198,189.575757557,42.0,42.0,?
2017-08-07 12:15:47.387831,4456.57575713,4022.3030299,4207.24242382,4079.99999959,3842.51515113,461.57575753,3806.96969659,737.696969623,4264.424242,597.575757516,4496.75757531,461.57575753,4204.66666625,3284.60606028,4545.18181773,3292.84848452,4957.81818132,2983.75757546,4058.87878747,539.878787825,4372.09090865,20.606060604,4240.7272723,4215.99999958,4768.75757528,3828.60606022,4399.90909047,189.575757557,42.0,42.0,?
2017-08-07 12:15:47.398831,4461.72727228,4022.3030299,4217.54545412,4079.99999959,3841.99999962,461.57575753,3816.24242386,737.696969623,4272.15151472,597.575757516,4497.27272682,461.57575753,4205.69696928,3284.60606028,4546.72727227,3292.84848452,4952.15151466,2983.75757546,4068.15151474,539.878787825,4375.69696926,20.606060604,4240.7272723,4215.99999958,4767.72727225,3828.60606022,4405.57575714,189.575757557,42.0,42.0,?
2017-08-07 12:15:47.405006,4467.90909046,4022.3030299,4220.63636321,4079.99999959,3846.63636325,461.57575753,3820.8787875,737.696969623,4267.51515109,597.575757516,4497.78787834,461.57575753,4205.18181776,3284.60606028,4549.81818136,3292.84848452,4953.6969692,2983.75757546,4074.84848444,539.878787825,4379.81818138,20.606060604,4251.03030261,4215.99999958,4770.81818134,3828.60606022,4414.84848441,189.575757557,42.0,42.0,?
2017-08-07 12:15:47.414159,4472.03030258,4022.3030299,4220.63636321,4079.99999959,3849.21212083,461.57575753,3817.78787841,737.696969623,4269.57575715,597.575757516,4492.12121167,461.57575753,4196.424242,3284.60606028,4546.21212076,3292.84848452,4952.15151466,2983.75757546,4073.81818141,539.878787825,4387.03030259,20.606060604,4251.03030261,4215.99999958,4783.69696922,3828.60606022,4417.9393935,189.575757557,42.0,42.0,?
2017-08-07 12:15:47.419136,4472.03030258,4022.3030299,4220.63636321,4079.99999959,3849.21212083,461.57575753,3817.78787841,737.696969623,4269.57575715,597.575757516,4480.27272682,461.57575753,4187.15151473,3284.60606028,4540.54545409,3292.84848452,4952.15151466,2983.75757546,4073.81818141,539.878787825,4394.75757532,20.606060604,4251.03030261,4215.99999958,4791.42424195,3828.60606022,4417.9393935,189.575757557,42.0,42.0,?
2017-08-07 12:15:47.427574,4467.39393895,4022.3030299,4221.66666624,4079.99999959,3845.60606022,461.57575753,3819.33333295,737.696969623,4260.30302988,597.575757516,4475.12121167,461.57575753,4186.63636322,3284.60606028,4540.54545409,3292.84848452,4952.15151466,2983.75757546,4073.3030299,539.878787825,4392.69696926,20.606060604,4250.51515109,4215.99999958,4784.72727225,3828.60606022,4417.42424198,189.575757557,42.0,42.0,?
2017-08-07 12:15:47.434943,4464.30302986,4022.3030299,4219.09090867,4079.99999959,3847.15151477,461.57575753,3818.81818144,737.696969623,4254.63636321,597.575757516,4475.12121167,461.57575753,4188.69696928,3284.60606028,4539.51515106,3292.84848452,4947.51515102,2983.75757546,4074.84848444,539.878787825,4383.9393935,20.606060604,4253.09090867,4215.99999958,4778.54545407,3828.60606022,4412.27272683,189.575757557,42.0,42.0,?
2017-08-07 12:15:47.441758,4466.87878743,4022.3030299,4218.06060564,4079.99999959,3846.63636325,461.57575753,3816.24242386,737.696969623,4262.87878745,597.575757516,4477.18181773,461.57575753,4191.78787837,3284.60606028,4535.39393894,3292.84848452,4940.81818132,2983.75757546,4072.27272687,539.878787825,4383.42424199,20.606060604,4251.03030261,4215.99999958,4781.63636316,3828.60606022,4407.6363632,189.575757557,42.0,42.0,?
2017-08-07 12:15:47.449635,4467.39393895,4022.3030299,4217.03030261,4079.99999959,3845.60606022,461.57575753,3815.72727235,737.696969623,4266.48484806,597.575757516,4486.45454501,461.57575753,4198.99999958,3284.60606028,4530.24242379,3292.84848452,4939.78787829,2983.75757546,4067.63636323,539.878787825,4387.03030259,20.606060604,4250.51515109,4215.99999958,4778.03030255,3828.60606022,4406.60606017,189.575757557,42.0,42.0,?
2017-08-07 12:15:47.457010,4466.36363592,4022.3030299,4210.84848443,4079.99999959,3844.06060568,461.57575753,3817.27272689,737.696969623,4263.39393897,597.575757516,4496.75757531,461.57575753,4207.75757534,3284.60606028,4531.27272682,3292.84848452,4941.33333284,2983.75757546,4068.15151474,539.878787825,4385.48484805,20.606060604,4252.57575715,4215.99999958,4776.48484801,3828.60606022,4407.12121168,189.575757557,42.0,42.0,?
2017-08-07 12:15:47.466785,4462.2424238,4022.3030299,4204.15151473,4079.99999959,3842.51515113,461.57575753,3817.78787841,737.696969623,4266.99999957,597.575757516,4499.33333288,461.57575753,4217.03030261,3284.60606028,4535.39393894,3292.84848452,4939.27272678,2983.75757546,4071.24242384,539.878787825,4381.87878744,20.606060604,4253.09090867,4215.99999958,4781.63636316,3828.60606022,4407.12121168,189.575757557,42.0,42.0,?
2017-08-07 12:15:47.475923,4460.69696925,4022.3030299,4202.60606019,4079.99999959,3843.54545416,461.57575753,3816.24242386,737.696969623,4271.63636321,597.575757516,4498.30302985,461.57575753,4221.15151473,3284.60606028,4533.8484844,3292.84848452,4934.12121163,2983.75757546,4073.3030299,539.878787825,4381.87878744,20.606060604,4252.06060564,4215.99999958,4779.5757571,3828.60606022,4406.09090865,189.575757557,42.0,42.0,?
2017-08-07 12:15:47.480933,4464.81818137,4022.3030299,4203.63636322,4079.99999959,3841.4848481,461.57575753,3814.69696932,737.696969623,4267.51515109,597.575757516,4497.78787834,461.57575753,4213.93939352,3284.60606028,4528.18181773,3292.84848452,4928.45454496,2983.75757546,4068.66666626,539.878787825,4382.39393896,20.606060604,4252.06060564,4215.99999958,4772.36363589,3828.60606022,4400.9393935,189.575757557,42.0,42.0,?
2017-08-07 12:15:47.489739,4464.30302986,4022.3030299,4202.09090867,4079.99999959,3836.33333295,461.57575753,3815.21212083,737.696969623,4263.39393897,597.575757516,4495.21212076,461.57575753,4198.99999958,3284.60606028,4520.96969652,3292.84848452,4924.84848436,2983.75757546,4062.99999959,539.878787825,4381.36363593,20.606060604,4252.57575715,4215.99999958,4772.8787874,3828.60606022,4400.9393935,189.575757557,42.0,42.0,?
2017-08-07 12:15:47.496206,4463.27272683,4022.3030299,4201.57575716,4079.99999959,3841.4848481,461.57575753,3816.24242386,737.696969623,4266.48484806,597.575757516,4493.1515147,461.57575753,4188.69696928,3284.60606028,4517.87878743,3292.84848452,4923.81818133,2983.75757546,4066.6060602,539.878787825,4381.36363593,20.606060604,4253.09090867,4215.99999958,4774.93939346,3828.60606022,4407.12121168,189.575757557,42.0,42.0,?
2017-08-07 12:15:47.503923,4465.33333289,4022.3030299,4202.09090867,4079.99999959,3846.12121174,461.57575753,3817.78787841,737.696969623,4266.48484806,597.575757516,4494.69696925,461.57575753,4189.21212079,3284.60606028,4519.93939349,3292.84848452,4922.7878783,2983.75757546,4072.27272687,539.878787825,4381.36363593,20.606060604,4252.06060564,4215.99999958,4770.81818134,3828.60606022,4408.66666623,189.575757557,42.0,42.0,?
2017-08-07 12:15:47.513717,4465.8484844,4022.3030299,4202.60606019,4079.99999959,3841.4848481,461.57575753,3818.30302992,737.696969623,4260.81818139,597.575757516,4490.57575713,461.57575753,4195.90909049,3284.60606028,4520.454545,3292.84848452,4921.75757527,2983.75757546,4067.12121171,539.878787825,4378.78787835,20.606060604,4251.54545412,4215.99999958,4769.2727268,3828.60606022,4404.03030259,189.575757557,42.0,42.0,?
2017-08-07 12:15:47.523379,4464.30302986,4022.3030299,4204.15151473,4079.99999959,3836.33333295,461.57575753,3813.15151477,737.696969623,4254.63636321,597.575757516,4480.27272682,461.57575753,4199.5151511,3284.60606028,4514.78787834,3292.84848452,4918.66666617,2983.75757546,4061.96969656,539.878787825,4376.72727229,20.606060604,4251.54545412,4215.99999958,4773.39393892,3828.60606022,4400.9393935,189.575757557,42.0,42.0,?
2017-08-07 12:15:47.527780,4464.81818137,4022.3030299,4204.15151473,4079.99999959,3837.36363598,461.57575753,3811.60606022,737.696969623,4252.06060564,597.575757516,4480.78787834,461.57575753,4202.60606019,3284.60606028,4514.27272682,3292.84848452,4916.0909086,2983.75757546,4067.63636323,539.878787825,4378.78787835,20.606060604,4249.48484806,4215.99999958,4776.48484801,3828.60606022,4400.9393935,189.575757557,42.0,42.0,?
2017-08-07 12:15:47.540354,4462.75757531,4022.3030299,4203.63636322,4079.99999959,3840.96969659,461.57575753,3817.78787841,737.696969623,4264.424242,597.575757516,4490.57575713,461.57575753,4211.87878746,3284.60606028,4527.66666621,3292.84848452,4921.75757527,2983.75757546,4076.39393899,539.878787825,4380.84848441,20.606060604,4256.69696927,4215.99999958,4774.93939346,3828.60606022,4401.96969653,189.575757557,42.0,42.0,?
2017-08-07 12:15:47.544383,4460.69696925,4022.3030299,4208.78787837,4079.99999959,3843.03030265,461.57575753,3820.36363598,737.696969623,4279.87878745,597.575757516,4502.93939349,461.57575753,4220.63636321,3284.60606028,4539.51515106,3292.84848452,4933.60606011,2983.75757546,4076.39393899,539.878787825,4378.27272683,20.606060604,4266.99999957,4215.99999958,4771.84848437,3828.60606022,4402.48484804,189.575757557,42.0,42.0,?
2017-08-07 12:15:47.553277,4461.21212077,4022.3030299,4217.54545412,4079.99999959,3843.03030265,461.57575753,3818.30302992,737.696969623,4278.33333291,597.575757516,4508.60606016,461.57575753,4220.63636321,3284.60606028,4536.93939349,3292.84848452,4928.45454496,2983.75757546,4069.18181777,539.878787825,4373.12121168,20.606060604,4260.30302988,4215.99999958,4769.78787831,3828.60606022,4399.39393895,189.575757557,42.0,42.0,?
2017-08-07 12:15:47.562107,4460.69696925,4022.3030299,4217.54545412,4079.99999959,3840.96969659,461.57575753,3818.30302992,737.696969623,4271.63636321,597.575757516,4502.42424197,461.57575753,4212.90909049,3284.60606028,4527.1515147,3292.84848452,4911.96969648,2983.75757546,4067.63636323,539.878787825,4371.06060562,20.606060604,4249.48484806,4215.99999958,4766.69696922,3828.60606022,4399.90909047,189.575757557,42.0,42.0,?
2017-08-07 12:15:47.567025,4462.75757531,4022.3030299,4212.39393897,4079.99999959,3840.45454507,461.57575753,3819.84848447,737.696969623,4273.18181775,597.575757516,4496.24242379,461.57575753,4206.21212079,3284.60606028,4523.03030258,3292.84848452,4913.51515102,2983.75757546,4072.78787838,539.878787825,4374.66666623,20.606060604,4252.57575715,4215.99999958,4768.24242377,3828.60606022,4402.48484804,189.575757557,42.0,42.0,?
2017-08-07 12:15:47.575983,4459.66666622,4022.3030299,4215.99999958,4079.99999959,3838.39393901,461.57575753,3818.30302992,737.696969623,4276.78787836,597.575757516,4505.51515106,461.57575753,4207.24242382,3284.60606028,4518.39393894,3292.84848452,4919.18181769,2983.75757546,4072.27272687,539.878787825,4378.27272683,20.606060604,4256.69696927,4215.99999958,4774.42424195,3828.60606022,4398.36363592,189.575757557,42.0,42.0,?
2017-08-07 12:15:47.582515,4453.99999955,4022.3030299,4218.06060564,4079.99999959,3834.7878784,461.57575753,3814.69696932,737.696969623,4273.69696927,597.575757516,4512.72727228,461.57575753,4206.72727231,3284.60606028,4508.09090864,3292.84848452,4909.3939389,2983.75757546,4063.51515111,539.878787825,4376.72727229,20.606060604,4248.96969654,4215.99999958,4772.36363589,3828.60606022,4394.2424238,189.575757557,42.0,42.0,?
2017-08-07 12:15:47.589980,4454.51515107,4022.3030299,4211.36363594,4079.99999959,3833.75757537,461.57575753,3809.54545416,737.696969623,4266.99999957,597.575757516,4501.39393894,461.57575753,4198.48484806,3284.60606028,4499.33333288,3292.84848452,4899.0909086,2983.75757546,4057.84848444,539.878787825,4372.09090865,20.606060604,4242.78787836,4215.99999958,4762.06060558,3828.60606022,4395.27272683,189.575757557,42.0,42.0,?
2017-08-07 12:15:47.600075,4455.5454541,4022.3030299,4206.72727231,4079.99999959,3828.60606022,461.57575753,3805.42424204,737.696969623,4259.78787836,597.575757516,4494.18181773,461.57575753,4194.87878746,3284.60606028,4493.66666622,3292.84848452,4895.484848,2983.75757546,4057.33333293,539.878787825,4367.96969653,20.606060604,4243.30302988,4215.99999958,4760.51515104,3828.60606022,4396.30302986,189.575757557,42.0,42.0,?
2017-08-07 12:15:47.608163,4451.93939349,4022.3030299,4205.18181776,4079.99999959,3821.39393901,461.57575753,3802.84848447,737.696969623,4254.1212117,597.575757516,4491.60606016,461.57575753,4198.48484806,3284.60606028,4491.60606016,3292.84848452,4896.51515103,2983.75757546,4058.36363596,539.878787825,4364.36363593,20.606060604,4241.75757533,4215.99999958,4763.09090861,3828.60606022,4391.66666623,189.575757557,42.0,42.0,?
2017-08-07 12:15:47.613549,4448.33333289,4022.3030299,4205.18181776,4079.99999959,3820.36363598,461.57575753,3802.84848447,737.696969623,4254.63636321,597.575757516,4481.30302985,461.57575753,4203.1212117,3284.60606028,4495.21212076,3292.84848452,4900.12121163,2983.75757546,4059.9090905,539.878787825,4365.39393896,20.606060604,4235.06060564,4215.99999958,4763.60606013,3828.60606022,4387.54545411,189.575757557,42.0,42.0,?
2017-08-07 12:15:47.622460,4454.51515107,4022.3030299,4205.18181776,4079.99999959,3824.4848481,461.57575753,3803.8787875,737.696969623,4260.81818139,597.575757516,4483.87878743,461.57575753,4209.8181814,3284.60606028,4502.93939349,3292.84848452,4899.60606012,2983.75757546,4059.39393899,539.878787825,4370.03030259,20.606060604,4249.99999958,4215.99999958,4765.66666619,3828.60606022,4392.69696926,189.575757557,42.0,42.0,?
2017-08-07 12:15:47.629950,4454.51515107,4030.54545414,4204.66666625,4079.99999959,3825.51515113,461.57575753,3806.96969659,737.696969623,4260.81818139,597.575757516,4495.21212076,461.57575753,4211.36363594,3284.60606028,4504.99999955,3292.84848452,4899.60606012,2983.75757546,4060.93939353,539.878787825,4372.09090865,20.606060604,4249.99999958,4215.99999958,4762.06060558,3828.60606022,4397.84848441,189.575757557,42.0,42.0,?
2017-08-07 12:15:47.641797,4463.27272683,4030.54545414,4207.24242382,4084.12121171,3824.99999962,461.57575753,3812.12121174,737.696969623,4256.18181776,597.575757516,4495.72727228,461.57575753,4205.18181776,3284.60606028,4499.33333288,3292.84848452,4905.27272678,2983.75757546,4066.6060602,539.878787825,4375.69696926,20.606060604,4254.1212117,4215.99999958,4761.54545407,3828.60606022,4398.87878744,189.575757557,42.0,42.0,?
2017-08-07 12:15:47.647075,4465.8484844,4030.54545414,4210.33333291,4084.12121171,3831.1818178,461.57575753,3814.1818178,737.696969623,4256.18181776,597.575757516,4494.69696925,461.57575753,4200.54545413,3284.60606028,4494.69696925,3292.84848452,4910.93939345,2983.75757546,4068.15151474,539.878787825,4383.42424199,20.606060604,4252.06060564,4215.99999958,4770.30302983,3828.60606022,4402.99999956,185.454545436,42.0,42.0,?
2017-08-07 12:15:47.654835,4460.69696925,4030.54545414,4205.69696928,4084.12121171,3832.21212083,461.57575753,3809.03030265,737.696969623,4254.63636321,597.575757516,4494.18181773,461.57575753,4196.424242,3284.60606028,4493.66666622,3292.84848452,4909.90909042,2983.75757546,4068.15151474,539.878787825,4385.48484805,20.606060604,4253.60606018,4215.99999958,4776.99999952,3828.60606022,4405.06060562,185.454545436,42.0,42.0,?
2017-08-07 12:15:47.660894,4461.21212077,4030.54545414,4201.57575716,4084.12121171,3824.4848481,461.57575753,3806.45454507,729.454545382,4246.90909048,597.575757516,4482.33333289,461.57575753,4188.69696928,3284.60606028,4491.60606016,3292.84848452,4909.3939389,2983.75757546,4068.66666626,539.878787825,4382.39393896,20.606060604,4251.03030261,4215.99999958,4774.93939346,3828.60606022,4405.57575714,185.454545436,42.0,42.0,?
2017-08-07 12:15:47.668786,4468.42424198,4030.54545414,4202.60606019,4084.12121171,3819.84848447,461.57575753,3808.51515113,729.454545382,4248.45454503,605.818181758,4481.30302985,461.57575753,4185.09090867,3284.60606028,4485.42424198,3292.84848452,4909.3939389,2983.75757546,4069.18181777,539.878787825,4384.45454502,20.606060604,4248.96969654,4215.99999958,4774.42424195,3828.60606022,4410.21212077,185.454545436,42.0,42.0,?
2017-08-07 12:15:47.676682,4471.51515107,4030.54545414,4202.60606019,4084.12121171,3827.57575719,461.57575753,3812.63636326,729.454545382,4255.66666624,605.818181758,4491.09090864,469.818181771,4193.84848443,3284.60606028,4482.8484844,3292.84848452,4908.36363587,2983.75757546,4073.3030299,539.878787825,4393.21212077,20.606060604,4258.75757533,4215.99999958,4781.12121164,3828.60606022,4417.42424198,185.454545436,42.0,42.0,?
2017-08-07 12:15:47.690707,4463.27272683,4030.54545414,4203.63636322,4084.12121171,3824.99999962,461.57575753,3813.15151477,729.454545382,4252.06060564,605.818181758,4487.48484804,469.818181771,4195.39393897,3284.60606028,4483.87878743,3292.84848452,4912.99999951,2983.75757546,4074.33333293,539.878787825,4387.54545411,20.606060604,4257.21212079,4215.99999958,4781.12121164,3828.60606022,4414.33333289,185.454545436,42.0,42.0,?
2017-08-07 12:15:47.695688,4463.27272683,4030.54545414,4203.63636322,4084.12121171,3824.99999962,461.57575753,3813.15151477,729.454545382,4252.06060564,605.818181758,4487.48484804,469.818181771,4195.39393897,3284.60606028,4483.87878743,3292.84848452,4912.99999951,2983.75757546,4074.33333293,539.878787825,4387.54545411,20.606060604,4257.21212079,4215.99999958,4781.12121164,3828.60606022,4414.33333289,185.454545436,42.0,42.0,?
2017-08-07 12:15:47.700362,4460.69696925,4030.54545414,4194.36363594,4084.12121171,3817.78787841,461.57575753,3807.99999962,729.454545382,4250.51515109,605.818181758,4484.90909046,469.818181771,4186.1212117,3284.60606028,4477.18181773,3292.84848452,4900.63636315,2991.9999997,4065.57575717,539.878787825,4374.66666623,20.606060604,4246.39393897,4215.99999958,4763.60606013,3828.60606022,4406.09090865,185.454545436,42.0,42.0,?
2017-08-07 12:15:47.707340,4458.12121168,4030.54545414,4195.90909049,4084.12121171,3821.39393901,461.57575753,3806.96969659,729.454545382,4254.1212117,605.818181758,4485.93939349,469.818181771,4189.21212079,3284.60606028,4470.99999955,3292.84848452,4893.42424193,2991.9999997,4060.93939353,527.515151462,4367.45454502,20.606060604,4245.87878745,4215.99999958,4753.30302983,3828.60606022,4400.9393935,185.454545436,42.0,42.0,?
2017-08-07 12:15:47.716950,4460.18181774,4030.54545414,4201.57575716,4084.12121171,3822.93939356,461.57575753,3812.63636326,729.454545382,4252.57575715,605.818181758,4484.39393895,469.818181771,4193.84848443,3284.60606028,4475.12121167,3292.84848452,4904.75757527,2991.9999997,4064.54545414,527.515151462,4373.6363632,20.606060604,4249.99999958,4215.99999958,4758.96969649,3828.60606022,4406.09090865,185.454545436,42.0,42.0,?
2017-08-07 12:15:47.723452,4465.8484844,4030.54545414,4193.33333291,4084.12121171,3818.81818144,461.57575753,3815.72727235,729.454545382,4248.45454503,605.818181758,4484.39393895,469.818181771,4187.15151473,3284.60606028,4476.66666622,3292.84848452,4908.36363587,2991.9999997,4069.18181777,527.515151462,4382.39393896,20.606060604,4254.63636321,4207.75757534,4768.24242377,3828.60606022,4412.78787835,185.454545436,42.0,42.0,?
2017-08-07 12:15:47.731055,4466.36363592,4030.54545414,4188.69696928,4084.12121171,3817.78787841,461.57575753,3810.57575719,729.454545382,4253.60606018,605.818181758,4491.60606016,469.818181771,4185.09090867,3284.60606028,4475.12121167,3292.84848452,4902.69696921,2991.9999997,4069.18181777,527.515151462,4385.99999956,20.606060604,4257.21212079,4207.75757534,4774.93939346,3836.84848446,4410.21212077,185.454545436,42.0,42.0,?
2017-08-07 12:15:47.740896,4462.2424238,4030.54545414,4194.36363594,4084.12121171,3818.30302992,461.57575753,3805.93939356,729.454545382,4257.7272723,605.818181758,4492.12121167,469.818181771,4188.69696928,3284.60606028,4475.63636319,3292.84848452,4906.30302981,2991.9999997,4069.69696929,527.515151462,4383.42424199,20.606060604,4254.63636321,4207.75757534,4772.8787874,3836.84848446,4402.99999956,185.454545436,42.0,42.0,?
2017-08-07 12:15:47.746542,4460.69696925,4030.54545414,4191.78787837,4084.12121171,3818.30302992,461.57575753,3810.57575719,729.454545382,4246.39393897,605.818181758,4479.24242379,469.818181771,4181.48484807,3284.60606028,4467.39393895,3292.84848452,4904.75757527,2991.9999997,4068.66666626,527.515151462,4378.27272683,28.8484848456,4252.06060564,4207.75757534,4765.66666619,3836.84848446,4398.87878744,185.454545436,42.0,42.0,?
2017-08-07 12:15:47.755003,4458.12121168,4030.54545414,4187.66666625,4084.12121171,3817.78787841,461.57575753,3815.72727235,729.454545382,4236.09090867,605.818181758,4473.57575713,469.818181771,4170.66666625,3284.60606028,4453.99999955,3292.84848452,4895.99999951,2991.9999997,4062.48484808,527.515151462,4375.69696926,28.8484848456,4247.93939351,4207.75757534,4759.99999952,3836.84848446,4400.42424198,185.454545436,42.0,42.0,?
2017-08-07 12:15:47.762050,4455.03030258,4030.54545414,4190.24242382,4084.12121171,3815.72727235,461.57575753,3815.72727235,729.454545382,4241.24242382,605.818181758,4479.75757531,469.818181771,4173.75757534,3284.60606028,4450.39393895,3292.84848452,4890.33333284,2991.9999997,4051.66666626,527.515151462,4374.66666623,28.8484848456,4237.63636321,4207.75757534,4755.8787874,3836.84848446,4398.87878744,185.454545436,42.0,42.0,?
2017-08-07 12:15:47.770237,4455.03030258,4030.54545414,4189.21212079,4084.12121171,3814.1818178,461.57575753,3816.24242386,729.454545382,4244.84848442,605.818181758,4478.72727228,469.818181771,4186.1212117,3284.60606028,4453.99999955,3292.84848452,4890.84848436,2991.9999997,4046.51515111,527.515151462,4366.9393935,28.8484848456,4231.96969655,4207.75757534,4749.18181771,3836.84848446,4393.72727229,185.454545436,42.0,42.0,?
2017-08-07 12:15:47.783551,4456.57575713,4030.54545414,4186.63636322,4084.12121171,3816.24242386,461.57575753,3818.30302992,729.454545382,4242.27272685,605.818181758,4477.69696925,469.818181771,4190.24242382,3284.60606028,4456.57575713,3292.84848452,4892.90909042,2991.9999997,4051.66666626,527.515151462,4359.72727229,28.8484848456,4235.06060564,4207.75757534,4746.60606013,3836.84848446,4394.2424238,185.454545436,42.0,42.0,?
2017-08-07 12:15:47.795653,4465.33333289,4030.54545414,4171.18181776,4084.12121171,3816.75757538,461.57575753,3820.36363598,729.454545382,4244.33333291,605.818181758,4483.87878743,469.818181771,4175.30302989,3284.60606028,4446.27272683,3292.84848452,4880.03030254,2991.9999997,4045.9999996,527.515151462,4365.90909047,28.8484848456,4229.90909049,4207.75757534,4756.39393892,3836.84848446,4396.81818138,185.454545436,42.0,42.0,?
2017-08-07 12:15:47.798650,4465.33333289,4030.54545414,4171.18181776,4084.12121171,3816.75757538,461.57575753,3820.36363598,729.454545382,4244.33333291,605.818181758,4483.87878743,469.818181771,4175.30302989,3284.60606028,4446.27272683,3292.84848452,4880.03030254,2991.9999997,4045.9999996,527.515151462,4365.90909047,28.8484848456,4229.90909049,4207.75757534,4756.39393892,3836.84848446,4396.81818138,185.454545436,42.0,42.0,?
2017-08-07 12:15:47.807917,4465.33333289,4030.54545414,4171.18181776,4084.12121171,3816.75757538,461.57575753,3820.36363598,729.454545382,4244.33333291,605.818181758,4482.33333289,469.818181771,4175.30302989,3284.60606028,4446.27272683,3292.84848452,4880.03030254,2991.9999997,4045.9999996,527.515151462,4365.90909047,28.8484848456,4229.90909049,4207.75757534,4756.39393892,3836.84848446,4395.78787835,185.454545436,42.0,42.0,?
2017-08-07 12:15:47.809851,4465.8484844,4030.54545414,4169.1212117,4084.12121171,3814.69696932,461.57575753,3818.81818144,729.454545382,4238.66666624,605.818181758,4472.5454541,469.818181771,4163.45454504,3284.60606028,4439.06060562,3292.84848452,4881.06060557,2991.9999997,4036.72727232,527.515151462,4364.87878744,28.8484848456,4221.66666624,4207.75757534,4756.39393892,3836.84848446,4397.33333289,185.454545436,42.0,42.0,?
2017-08-07 12:15:47.826570,4462.2424238,4030.54545414,4162.93939352,4084.12121171,3816.24242386,461.57575753,3818.30302992,729.454545382,4233.51515109,605.818181758,4461.21212077,469.818181771,4155.2121208,3284.60606028,4428.2424238,3292.84848452,4882.60606012,2991.9999997,4040.84848444,527.515151462,4366.9393935,28.8484848456,4223.21212079,4207.75757534,4756.90909043,3836.84848446,4395.78787835,185.454545436,42.0,42.0,?
2017-08-07 12:15:47.832095,4458.12121168,4030.54545414,4157.78787837,4084.12121171,3813.15151477,461.57575753,3818.30302992,729.454545382,4223.7272723,605.818181758,4454.51515107,469.818181771,4151.09090868,3284.60606028,4412.78787835,3292.84848452,4871.7878783,2991.9999997,4042.39393899,527.515151462,4359.21212078,28.8484848456,4220.1212117,4207.75757534,4749.18181771,3836.84848446,4390.12121168,185.454545436,42.0,42.0,?
2017-08-07 12:15:47.838347,4454.51515107,4030.54545414,4155.72727231,4084.12121171,3808.51515113,461.57575753,3816.75757538,729.454545382,4218.57575715,605.818181758,4449.36363592,469.818181771,4151.09090868,3284.60606028,4404.03030259,3292.84848452,4858.90909042,2991.9999997,4028.48484808,527.515151462,4352.51515108,28.8484848456,4205.18181776,4207.75757534,4744.03030256,3836.84848446,4387.03030259,185.454545436,42.0,42.0,?
2017-08-07 12:15:47.842956,4450.90909046,4030.54545414,4153.66666625,4084.12121171,3808.51515113,461.57575753,3820.36363598,729.454545382,4214.96969655,605.818181758,4445.75757531,469.818181771,4155.2121208,3284.60606028,4403.51515107,3292.84848452,4860.96969648,2991.9999997,4023.33333293,527.515151462,4350.96969653,28.8484848456,4205.69696928,4207.75757534,4739.90909044,3836.84848446,4386.51515108,185.454545436,42.0,42.0,?
2017-08-07 12:15:47.848391,4448.33333289,4030.54545414,4149.03030262,4084.12121171,3806.96969659,461.57575753,3829.63636325,729.454545382,4204.15151473,605.818181758,4446.78787834,469.818181771,4157.27272686,3284.60606028,4400.42424198,3292.84848452,4864.57575709,2991.9999997,4029.51515111,527.515151462,4340.66666623,28.8484848456,4216.51515109,4207.75757534,4728.06060559,3836.84848446,4381.87878744,185.454545436,42.0,42.0,?
2017-08-07 12:15:47.858257,4452.45454501,4030.54545414,4149.03030262,4084.12121171,3803.36363598,461.57575753,3834.27272689,729.454545382,4203.63636322,605.818181758,4449.36363592,469.818181771,4159.33333292,3284.60606028,4393.21212077,3292.84848452,4849.12121164,2991.9999997,4020.24242384,527.515151462,4333.45454502,28.8484848456,4209.30302988,4207.75757534,4723.93939347,3836.84848446,4374.66666623,185.454545436,42.0,42.0,?
2017-08-07 12:15:47.864910,4452.45454501,4030.54545414,4153.66666625,4084.12121171,3805.42424204,461.57575753,3835.30302992,729.454545382,4214.45454503,605.818181758,4453.99999955,469.818181771,4157.27272686,3284.60606028,4389.60606017,3292.84848452,4841.39393891,2991.9999997,4007.87878748,527.515151462,4335.51515108,28.8484848456,4193.84848443,4207.75757534,4730.63636316,3836.84848446,4374.66666623,185.454545436,42.0,42.0,?
2017-08-07 12:15:47.878691,4446.27272683,4030.54545414,4153.66666625,4084.12121171,3810.06060568,461.57575753,3836.84848446,729.454545382,4215.99999958,605.818181758,4460.69696925,469.818181771,4152.12121171,3284.60606028,4393.72727229,3292.84848452,4854.7878783,2991.9999997,4014.06060566,527.515151462,4336.0303026,28.8484848456,4198.48484806,4207.75757534,4727.03030256,3836.84848446,4379.81818138,185.454545436,42.0,42.0,?
2017-08-07 12:15:47.883020,4448.33333289,4030.54545414,4146.45454504,4084.12121171,3810.06060568,461.57575753,3835.30302992,729.454545382,4212.39393897,605.818181758,4458.12121168,469.818181771,4153.15151474,3284.60606028,4397.84848441,3292.84848452,4855.81818133,2991.9999997,4024.36363596,527.515151462,4337.57575714,28.8484848456,4208.27272685,4207.75757534,4721.36363589,3836.84848446,4378.78787835,185.454545436,42.0,42.0,?
2017-08-07 12:15:47.890340,4450.39393895,4030.54545414,4142.33333292,4084.12121171,3806.96969659,461.57575753,3833.75757537,729.454545382,4206.21212079,605.818181758,4448.8484844,469.818181771,4147.48484807,3284.60606028,4394.2424238,3292.84848452,4841.90909042,2991.9999997,4021.27272687,527.515151462,4335.51515108,28.8484848456,4202.60606019,4207.75757534,4723.93939347,3836.84848446,4369.51515108,185.454545436,42.0,42.0,?
2017-08-07 12:15:47.899057,4439.57575713,4030.54545414,4140.78787837,4084.12121171,3806.45454507,461.57575753,3831.69696931,729.454545382,4206.21212079,605.818181758,4440.09090865,469.818181771,4130.99999959,3284.60606028,4386.51515108,3292.84848452,4841.90909042,2991.9999997,4008.39393899,527.515151462,4322.12121169,28.8484848456,4191.78787837,4207.75757534,4717.24242377,3836.84848446,4362.81818138,185.454545436,42.0,42.0,?
2017-08-07 12:15:47.904041,4427.72727228,4030.54545414,4136.15151474,4084.12121171,3807.99999962,461.57575753,3824.99999962,729.454545382,4201.06060564,605.818181758,4427.72727228,469.818181771,4122.24242383,3284.60606028,4380.84848441,3292.84848452,4843.45454497,2991.9999997,4001.18181778,527.515151462,4312.3333329,28.8484848456,4188.69696928,4207.75757534,4704.87878741,3836.84848446,4360.24242381,185.454545436,42.0,42.0,?
2017-08-07 12:15:47.912824,4429.27272683,4030.54545414,4134.09090868,4084.12121171,3811.09090871,461.57575753,3824.99999962,729.454545382,4196.93939352,605.818181758,4423.60606016,469.818181771,4129.96969656,3284.60606028,4379.30302987,3292.84848452,4830.57575709,2991.9999997,4004.78787839,527.515151462,4315.42424199,28.8484848456,4189.21212079,4207.75757534,4705.39393892,3836.84848446,4356.12121169,185.454545436,42.0,42.0,?
2017-08-07 12:15:47.918086,4439.57575713,4030.54545414,4138.2121208,4084.12121171,3814.69696932,461.57575753,3833.24242386,729.454545382,4194.36363594,605.818181758,4431.84848441,469.818181771,4137.69696928,3284.60606028,4377.75757532,3292.84848452,4825.42424194,2991.9999997,4007.36363596,527.515151462,4320.57575714,28.8484848456,4186.63636322,4207.75757534,4713.12121165,3836.84848446,4357.15151472,185.454545436,42.0,42.0,?
2017-08-07 12:15:47.926212,4447.81818137,4030.54545414,4141.8181814,4084.12121171,3821.90909053,461.57575753,3838.90909053,729.454545382,4192.8181814,605.818181758,4432.36363592,469.818181771,4129.96969656,3284.60606028,4374.66666623,3292.84848452,4828.51515103,2991.9999997,4011.48484808,527.515151462,4325.72727229,28.8484848456,4188.69696928,4207.75757534,4720.84848438,3836.84848446,4366.9393935,185.454545436,42.0,42.0,?
2017-08-07 12:15:47.934480,4445.2424238,4030.54545414,4141.30302989,4084.12121171,3824.99999962,461.57575753,3838.39393901,729.454545382,4188.18181776,605.818181758,4425.66666622,469.818181771,4121.72727232,3284.60606028,4371.57575714,3292.84848452,4824.90909043,2991.9999997,4015.6060602,527.515151462,4326.75757532,28.8484848456,4190.75757534,4207.75757534,4723.42424195,3836.84848446,4370.54545411,185.454545436,42.0,42.0,?
2017-08-07 12:15:47.942213,4435.45454501,4030.54545414,4137.69696928,4084.12121171,3819.33333295,461.57575753,3834.27272689,729.454545382,4189.72727231,605.818181758,4430.30302986,469.818181771,4134.60606019,3284.60606028,4377.2424238,3292.84848452,4822.33333285,2991.9999997,4007.36363596,527.515151462,4312.3333329,28.8484848456,4179.93939352,4207.75757534,4709.51515104,3836.84848446,4361.27272684,185.454545436,42.0,42.0,?
2017-08-07 12:15:47.952408,4432.36363592,4030.54545414,4134.09090868,4084.12121171,3815.21212083,461.57575753,3831.69696931,729.454545382,4202.09090867,605.818181758,4441.63636319,469.818181771,4155.72727231,3284.60606028,4389.60606017,3292.84848452,4823.8787874,2991.9999997,3997.57575718,527.515151462,4299.96969654,28.8484848456,4171.69696928,4207.75757534,4690.9696965,3836.84848446,4349.9393935,185.454545436,42.0,42.0,?
2017-08-07 12:15:47.959783,4431.84848441,4030.54545414,4129.45454504,4084.12121171,3814.69696932,461.57575753,3830.66666628,729.454545382,4207.24242382,605.818181758,4449.36363592,469.818181771,4161.39393898,3284.60606028,4391.15151471,3292.84848452,4817.1818177,2991.9999997,3999.12121172,527.515151462,4304.09090866,28.8484848456,4175.30302989,4207.75757534,4691.99999953,3836.84848446,4348.39393896,185.454545436,42.0,42.0,?
2017-08-07 12:15:47.965107,4428.75757531,4030.54545414,4129.45454504,4084.12121171,3814.1818178,461.57575753,3828.09090871,729.454545382,4203.63636322,605.818181758,4448.33333289,469.818181771,4154.18181777,3284.60606028,4386.51515108,3292.84848452,4818.72727225,2991.9999997,4003.75757536,527.515151462,4306.15151472,28.8484848456,4174.27272686,4207.75757534,4698.69696923,3836.84848446,4349.9393935,185.454545436,42.0,42.0,?
2017-08-07 12:15:47.972933,4428.75757531,4030.54545414,4129.96969656,4084.12121171,3814.1818178,461.57575753,3829.63636325,729.454545382,4200.03030261,605.818181758,4438.5454541,469.818181771,4144.39393898,3284.60606028,4385.99999956,3292.84848452,4824.90909043,2991.9999997,4004.27272687,527.515151462,4304.09090866,28.8484848456,4173.24242383,4207.75757534,4694.57575711,3836.84848446,4349.9393935,185.454545436,42.0,42.0,?
2017-08-07 12:15:47.981065,4428.2424238,4030.54545414,4125.84848444,4084.12121171,3815.21212083,461.57575753,3832.21212083,729.454545382,4195.39393897,605.818181758,4431.84848441,469.818181771,4134.09090868,3284.60606028,4376.72727229,3292.84848452,4810.99999952,2991.9999997,4002.21212081,527.515151462,4304.60606018,28.8484848456,4180.45454504,4207.75757534,4691.48484802,3836.84848446,4348.90909047,185.454545436,42.0,42.0,?
2017-08-07 12:15:47.993650,4426.18181774,4030.54545414,4122.75757535,4084.12121171,3813.15151477,461.57575753,3824.99999962,729.454545382,4190.75757534,605.818181758,4430.30302986,469.818181771,4126.36363595,3284.60606028,4362.30302987,3292.84848452,4798.12121164,2991.9999997,3999.12121172,527.515151462,4306.15151472,28.8484848456,4181.48484807,4207.75757534,4698.69696923,3836.84848446,4348.39393896,185.454545436,42.0,42.0,?
2017-08-07 12:15:47.998143,4430.30302986,4030.54545414,4123.27272686,4084.12121171,3812.12121174,461.57575753,3823.96969659,729.454545382,4188.18181776,605.818181758,4424.12121168,469.818181771,4127.39393898,3284.60606028,4359.21212078,3292.84848452,4803.78787831,2991.9999997,4001.18181778,527.515151462,4305.63636321,28.8484848456,4173.24242383,4207.75757534,4703.33333286,3836.84848446,4351.48484805,185.454545436,42.0,42.0,?
2017-08-07 12:15:48.010515,4432.87878744,4030.54545414,4123.27272686,4084.12121171,3813.66666629,461.57575753,3831.1818178,729.454545382,4187.66666625,605.818181758,4423.09090865,469.818181771,4136.66666625,3284.60606028,4363.84848441,3292.84848452,4806.36363588,2991.9999997,4001.6969693,527.515151462,4302.54545412,28.8484848456,4173.24242383,4207.75757534,4697.6666662,3836.84848446,4353.03030259,185.454545436,42.0,42.0,?
2017-08-07 12:15:48.013209,4428.2424238,4030.54545414,4117.09090868,4084.12121171,3811.60606022,461.57575753,3827.57575719,729.454545382,4194.36363594,605.818181758,4436.48484804,469.818181771,4147.48484807,3284.60606028,4365.90909047,3292.84848452,4797.60606013,2991.9999997,3991.39393899,527.515151462,4297.90909048,28.8484848456,4173.75757534,4207.75757534,4691.48484802,3836.84848446,4348.90909047,185.454545436,42.0,42.0,?
2017-08-07 12:15:48.021865,4428.2424238,4030.54545414,4110.39393898,4084.12121171,3812.12121174,461.57575753,3823.96969659,729.454545382,4206.21212079,605.818181758,4452.45454501,469.818181771,4157.78787837,3284.60606028,4368.48484805,3292.84848452,4795.54545407,2991.9999997,3985.72727233,527.515151462,4301.51515109,28.8484848456,4170.15151473,4207.75757534,4693.54545408,3836.84848446,4345.30302987,185.454545436,42.0,42.0,?
2017-08-07 12:15:48.028611,4432.87878744,4030.54545414,4110.39393898,4084.12121171,3814.69696932,461.57575753,3832.21212083,729.454545382,4212.39393897,605.818181758,4454.51515107,469.818181771,4158.30302989,3284.60606028,4371.06060562,3292.84848452,4804.30302982,2991.9999997,3991.90909051,527.515151462,4308.21212078,28.8484848456,4173.24242383,4207.75757534,4695.60606014,3836.84848446,4347.36363593,185.454545436,42.0,42.0,?
2017-08-07 12:15:48.036033,4429.78787834,4030.54545414,4106.27272686,4084.12121171,3811.60606022,461.57575753,3831.1818178,729.454545382,4205.18181776,605.818181758,4441.63636319,469.818181771,4147.48484807,3284.60606028,4366.9393935,3292.84848452,4805.33333285,2991.9999997,3992.93939354,527.515151462,4304.60606018,28.8484848456,4177.87878746,4207.75757534,4690.45454499,3836.84848446,4347.87878744,185.454545436,42.0,42.0,?
2017-08-07 12:15:48.045964,4427.21212077,4030.54545414,4096.99999959,4084.12121171,3812.12121174,461.57575753,3819.84848447,729.454545382,4189.21212079,605.818181758,4429.78787834,469.818181771,4141.8181814,3284.60606028,4362.30302987,3292.84848452,4797.09090861,2991.9999997,3991.39393899,527.515151462,4302.54545412,28.8484848456,4183.03030261,4207.75757534,4689.93939347,3836.84848446,4347.36363593,185.454545436,42.0,42.0,?
2017-08-07 12:15:48.051706,4428.75757531,4030.54545414,4093.9090905,4084.12121171,3818.81818144,461.57575753,3821.90909053,729.454545382,4185.60606019,605.818181758,4438.03030259,469.818181771,4145.93939352,3284.60606028,4362.81818138,3292.84848452,4795.54545407,2991.9999997,3995.51515112,527.515151462,4310.78787836,28.8484848456,4187.15151473,4207.75757534,4701.2727268,3836.84848446,4351.48484805,185.454545436,42.0,42.0,?
2017-08-07 12:15:48.059142,4432.36363592,4030.54545414,4095.96969656,4084.12121171,3816.75757538,461.57575753,3831.1818178,729.454545382,4194.87878746,605.818181758,4448.8484844,469.818181771,4143.87878746,3284.60606028,4359.21212078,3292.84848452,4798.63636316,2991.9999997,3997.57575718,527.515151462,4314.39393896,28.8484848456,4187.15151473,4207.75757534,4707.45454498,3836.84848446,4354.06060563,185.454545436,42.0,42.0,?
2017-08-07 12:15:48.067451,4439.06060562,4030.54545414,4094.93939353,4084.12121171,3815.72727235,461.57575753,3832.21212083,729.454545382,4195.90909049,605.818181758,4443.18181774,469.818181771,4136.66666625,3284.60606028,4350.96969653,3292.84848452,4794.51515104,2991.9999997,4000.66666627,527.515151462,4315.93939351,28.8484848456,4185.09090867,4207.75757534,4706.42424195,3836.84848446,4360.75757532,185.454545436,42.0,42.0,?
2017-08-07 12:15:48.075692,4443.18181774,4030.54545414,4094.42424201,4084.12121171,3820.36363598,461.57575753,3831.1818178,729.454545382,4188.18181776,605.818181758,4433.90909047,469.818181771,4139.24242383,3284.60606028,4349.42424199,3292.84848452,4792.96969649,2991.9999997,4005.81818142,527.515151462,4324.69696926,28.8484848456,4184.06060564,4207.75757534,4711.5757571,3836.84848446,4365.39393896,185.454545436,42.0,42.0,?
2017-08-07 12:15:48.083933,4441.12121168,4030.54545414,4094.93939353,4084.12121171,3819.84848447,461.57575753,3832.21212083,729.454545382,4186.1212117,605.818181758,4435.45454501,469.818181771,4146.45454504,3284.60606028,4349.9393935,3292.84848452,4791.93939346,2991.9999997,4000.66666627,527.515151462,4327.78787836,28.8484848456,4185.09090867,4207.75757534,4717.24242377,3836.84848446,4360.24242381,185.454545436,42.0,42.0,?
2017-08-07 12:15:48.090165,4442.66666622,4030.54545414,4092.87878747,4084.12121171,3817.78787841,461.57575753,3830.66666628,729.454545382,4188.18181776,605.818181758,4441.12121168,469.818181771,4149.03030262,3284.60606028,4348.39393896,3292.84848452,4787.81818134,2991.9999997,3996.03030263,527.515151462,4322.6363632,28.8484848456,4184.57575716,4207.75757534,4718.2727268,3836.84848446,4358.69696926,185.454545436,42.0,42.0,?
2017-08-07 12:15:48.098095,4447.81818137,4030.54545414,4093.39393898,4084.12121171,3817.78787841,461.57575753,3830.15151477,729.454545382,4187.66666625,605.818181758,4446.78787834,469.818181771,4152.63636322,3284.60606028,4353.54545411,3292.84848452,4792.45454498,2991.9999997,4001.6969693,527.515151462,4319.54545411,28.8484848456,4186.63636322,4207.75757534,4717.24242377,3836.84848446,4364.87878744,185.454545436,42.0,42.0,?
2017-08-07 12:15:48.108424,4443.69696925,4030.54545414,4094.93939353,4084.12121171,3814.1818178,461.57575753,3829.63636325,729.454545382,4189.72727231,605.818181758,4451.42424198,469.818181771,4156.75757534,3284.60606028,4357.15151472,3292.84848452,4798.63636316,2991.9999997,3998.09090869,527.515151462,4319.54545411,28.8484848456,4185.60606019,4207.75757534,4715.18181771,3836.84848446,4359.21212078,185.454545436,42.0,42.0,?
2017-08-07 12:15:48.120368,4435.96969653,4030.54545414,4092.36363595,4084.12121171,3811.09090871,461.57575753,3826.03030265,729.454545382,4200.03030261,605.818181758,4451.42424198,469.818181771,4151.60606019,3284.60606028,4352.51515108,3292.84848452,4791.93939346,2991.9999997,3989.33333293,527.515151462,4317.48484805,28.8484848456,4177.87878746,4207.75757534,4716.72727226,3836.84848446,4347.87878744,185.454545436,42.0,42.0,?
2017-08-07 12:15:48.122038,4435.96969653,4030.54545414,4085.66666626,4084.12121171,3809.54545416,461.57575753,3819.84848447,729.454545382,4200.03030261,605.818181758,4449.87878743,469.818181771,4138.72727231,3284.60606028,4345.81818138,3292.84848452,4783.69696922,2991.9999997,3992.42424203,527.515151462,4315.42424199,28.8484848456,4173.75757534,4207.75757534,4717.24242377,3836.84848446,4347.87878744,185.454545436,42.0,42.0,?
2017-08-07 12:15:48.133066,4438.03030259,4030.54545414,4083.09090868,4084.12121171,3807.4848481,461.57575753,3817.78787841,729.454545382,4196.424242,605.818181758,4449.87878743,469.818181771,4132.03030262,3284.60606028,4341.69696926,3292.84848452,4783.1818177,2991.9999997,3996.54545415,527.515151462,4317.99999957,28.8484848456,4174.78787837,4207.75757534,4714.15151468,3836.84848446,4353.54545411,185.454545436,42.0,42.0,?
2017-08-07 12:15:48.137344,4434.9393935,4030.54545414,4084.63636323,4079.99999959,3811.09090871,461.57575753,3826.54545416,729.454545382,4194.87878746,605.818181758,4447.81818137,469.818181771,4135.12121171,3284.60606028,4343.24242381,3292.84848452,4786.27272679,2991.9999997,3993.96969657,527.515151462,4322.6363632,28.8484848456,4173.75757534,4207.75757534,4715.69696923,3836.84848446,4354.57575714,185.454545436,42.0,42.0,?
2017-08-07 12:15:48.145094,4438.5454541,4030.54545414,4084.63636323,4079.99999959,3815.72727235,461.57575753,3831.69696931,729.454545382,4201.57575716,605.818181758,4445.75757531,469.818181771,4146.96969656,3284.60606028,4354.06060563,3292.84848452,4801.21212073,2991.9999997,3994.48484809,527.515151462,4321.09090866,28.8484848456,4180.45454504,4207.75757534,4720.84848438,3836.84848446,4355.09090866,189.575757557,42.0,42.0,?
2017-08-07 12:15:48.154075,4442.15151471,4030.54545414,4089.27272686,4079.99999959,3814.69696932,473.939393892,3828.60606022,729.454545382,4208.78787837,605.818181758,4450.39393895,469.818181771,4156.75757534,3284.60606028,4365.39393896,3292.84848452,4813.06060558,2991.9999997,4001.18181778,527.515151462,4323.66666623,28.8484848456,4192.8181814,4207.75757534,4722.90909044,3836.84848446,4359.72727229,189.575757557,42.0,42.0,?
2017-08-07 12:15:48.161533,4439.57575713,4030.54545414,4092.87878747,4079.99999959,3812.63636326,473.939393892,3823.96969659,729.454545382,4209.30302988,605.818181758,4457.60606016,469.818181771,4155.2121208,3284.60606028,4363.84848441,3292.84848452,4804.81818134,2991.9999997,4004.78787839,527.515151462,4332.42424199,28.8484848456,4190.75757534,4207.75757534,4724.9696965,3836.84848446,4361.78787835,189.575757557,42.0,42.0,?
2017-08-07 12:15:48.172978,4439.06060562,4030.54545414,4087.2121208,4079.99999959,3816.24242386,473.939393892,3826.54545416,729.454545382,4206.72727231,605.818181758,4458.63636319,469.818181771,4154.69696928,3284.60606028,4357.66666623,3292.84848452,4800.69696922,2991.9999997,4001.6969693,527.515151462,4330.36363593,28.8484848456,4187.15151473,4207.75757534,4725.48484801,3836.84848446,4357.66666623,189.575757557,42.0,42.0,?
2017-08-07 12:15:48.178506,4440.60606016,4030.54545414,4083.6060602,4079.99999959,3818.81818144,473.939393892,3831.1818178,729.454545382,4211.87878746,605.818181758,4462.2424238,469.818181771,4158.8181814,3284.60606028,4359.21212078,3292.84848452,4805.84848437,2991.9999997,3999.63636324,527.515151462,4321.09090866,28.8484848456,4189.21212079,4207.75757534,4720.33333286,3836.84848446,4354.57575714,189.575757557,42.0,42.0,?
2017-08-07 12:15:48.184188,4435.96969653,4030.54545414,4086.69696929,4079.99999959,3815.21212083,473.939393892,3826.03030265,729.454545382,4215.99999958,605.818181758,4463.78787834,469.818181771,4156.24242383,3284.60606028,4360.24242381,3292.84848452,4801.21212073,2991.9999997,3998.60606021,527.515151462,4317.48484805,28.8484848456,4180.96969655,4207.75757534,4716.72727226,3836.84848446,4352.51515108,189.575757557,42.0,42.0,?
2017-08-07 12:15:48.193843,4431.84848441,4030.54545414,4086.69696929,4079.99999959,3813.15151477,473.939393892,3820.8787875,729.454545382,4211.36363594,605.818181758,4455.03030258,469.818181771,4145.42424201,3284.60606028,4353.54545411,3280.48484816,4793.99999952,2991.9999997,3997.06060566,527.515151462,4316.45454502,28.8484848456,4175.8181814,4207.75757534,4715.69696923,3836.84848446,4348.39393896,189.575757557,42.0,42.0,?
2017-08-07 12:15:48.200589,4434.9393935,4030.54545414,4085.15151474,4079.99999959,3816.75757538,473.939393892,3825.51515113,729.454545382,4206.72727231,605.818181758,4447.30302986,469.818181771,4136.15151474,3284.60606028,4347.87878744,3280.48484816,4799.66666619,2987.87878758,4003.24242384,527.515151462,4319.0303026,28.8484848456,4184.57575716,4207.75757534,4716.72727226,3836.84848446,4353.03030259,189.575757557,42.0,42.0,?
2017-08-07 12:15:48.209193,4439.06060562,4030.54545414,4087.72727232,4079.99999959,3819.84848447,473.939393892,3829.12121174,729.454545382,4205.18181776,605.818181758,4442.15151471,469.818181771,4137.69696928,3284.60606028,4351.48484805,3280.48484816,4804.30302982,2987.87878758,4013.03030263,539.878787825,4328.30302987,28.8484848456,4191.27272685,4207.75757534,4722.39393892,3836.84848446,4363.3333329,189.575757557,42.0,42.0,?
2017-08-07 12:15:48.218641,4437.51515107,4030.54545414,4082.06060565,4079.99999959,3820.8787875,473.939393892,3824.4848481,729.454545382,4190.75757534,605.818181758,4428.2424238,469.818181771,4135.63636322,3284.60606028,4346.84848441,3280.48484816,4799.15151467,2987.87878758,4004.78787839,539.878787825,4323.66666623,16.4848484832,4182.5151511,4203.63636322,4713.63636317,3836.84848446,4359.21212078,189.575757557,42.0,42.0,?
2017-08-07 12:15:48.223034,4437.51515107,4030.54545414,4082.06060565,4079.99999959,3820.8787875,473.939393892,3824.4848481,729.454545382,4190.75757534,605.818181758,4428.2424238,469.818181771,4135.63636322,3284.60606028,4346.84848441,3280.48484816,4799.15151467,2987.87878758,4004.78787839,539.878787825,4323.66666623,16.4848484832,4182.5151511,4203.63636322,4713.63636317,3836.84848446,4359.21212078,189.575757557,42.0,42.0,?
2017-08-07 12:15:48.231470,4439.06060562,4030.54545414,4079.48484808,4079.99999959,3820.36363598,473.939393892,3827.06060568,729.454545382,4191.78787837,605.818181758,4431.84848441,469.818181771,4126.87878747,3284.60606028,4339.6363632,3280.48484816,4795.03030255,2987.87878758,4006.84848445,539.878787825,4321.09090866,16.4848484832,4177.36363595,4203.63636322,4711.06060559,3836.84848446,4361.78787835,189.575757557,42.0,42.0,?
2017-08-07 12:15:48.244326,4438.03030259,4030.54545414,4079.48484808,4079.99999959,3817.27272689,473.939393892,3821.39393901,729.454545382,4190.75757534,605.818181758,4427.21212077,469.818181771,4122.24242383,3284.60606028,4336.0303026,3280.48484816,4791.42424195,2987.87878758,4006.33333293,535.757575704,4315.93939351,16.4848484832,4178.39393898,4203.63636322,4708.99999953,3836.84848446,4361.27272684,189.575757557,42.0,42.0,?
2017-08-07 12:15:48.249395,4436.99999956,4030.54545414,4076.9090905,4079.99999959,3814.69696932,473.939393892,3818.30302992,729.454545382,4186.1212117,605.818181758,4425.66666622,469.818181771,4122.75757535,3284.60606028,4332.93939351,3280.48484816,4789.8787874,2987.87878758,3999.63636324,535.757575704,4310.78787836,28.8484848456,4177.36363595,4203.63636322,4705.39393892,3836.84848446,4355.60606017,189.575757557,42.0,42.0,?
2017-08-07 12:15:48.261895,4439.57575713,4030.54545414,4077.93939353,4079.99999959,3816.24242386,473.939393892,3819.84848447,729.454545382,4192.30302988,605.818181758,4441.12121168,469.818181771,4130.99999959,3284.60606028,4333.45454502,3280.48484816,4788.84848437,2987.87878758,3998.60606021,535.757575704,4316.96969654,28.8484848456,4178.90909049,4207.75757534,4710.03030256,3836.84848446,4358.69696926,189.575757557,42.0,42.0,?
2017-08-07 12:15:48.266423,4438.03030259,4030.54545414,4080.51515111,4079.99999959,3816.24242386,473.939393892,3821.90909053,729.454545382,4200.03030261,605.818181758,4447.30302986,469.818181771,4142.33333292,3284.60606028,4336.54545411,3280.48484816,4788.33333285,2987.87878758,4004.78787839,535.757575704,4325.21212078,28.8484848456,4185.09090867,4207.75757534,4714.6666662,3836.84848446,4363.84848441,189.575757557,42.0,42.0,?
2017-08-07 12:15:48.270615,4429.27272683,4030.54545414,4072.78787838,4079.99999959,3811.09090871,473.939393892,3819.33333295,729.454545382,4196.93939352,605.818181758,4438.5454541,469.818181771,4143.87878746,3284.60606028,4338.60606017,3280.48484816,4788.33333285,2987.87878758,4009.93939354,535.757575704,4321.09090866,28.8484848456,4189.21212079,4207.75757534,4707.9696965,3836.84848446,4355.60606017,189.575757557,42.0,42.0,?
2017-08-07 12:15:48.284046,4428.75757531,4030.54545414,4064.54545414,4079.99999959,3810.06060568,473.939393892,3815.72727235,729.454545382,4193.33333291,605.818181758,4436.99999956,469.818181771,4144.39393898,3284.60606028,4342.21212078,3280.48484816,4790.90909043,2987.87878758,4008.39393899,535.757575704,4315.93939351,28.8484848456,4192.8181814,4207.75757534,4702.30302983,3836.84848446,4348.90909047,189.575757557,42.0,42.0,?
2017-08-07 12:15:48.295066,4436.48484804,4030.54545414,4068.66666626,4079.99999959,3814.69696932,473.939393892,3817.78787841,729.454545382,4196.424242,605.818181758,4443.18181774,469.818181771,4154.69696928,3284.60606028,4347.87878744,3280.48484816,4791.42424195,2987.87878758,4006.84848445,535.757575704,4321.60606017,28.8484848456,4193.84848443,4207.75757534,4710.54545407,3836.84848446,4357.15151472,189.575757557,42.0,42.0,?
2017-08-07 12:15:48.301554,4438.03030259,4030.54545414,4070.72727232,4079.99999959,3816.24242386,473.939393892,3818.81818144,729.454545382,4196.93939352,605.818181758,4436.99999956,469.818181771,4150.57575716,3284.60606028,4347.87878744,3280.48484816,4788.84848437,2987.87878758,4009.93939354,535.757575704,4324.18181775,28.8484848456,4194.87878746,4207.75757534,4716.21212074,3836.84848446,4365.39393896,189.575757557,42.0,42.0,?
2017-08-07 12:15:48.323776,4431.84848441,4030.54545414,4062.48484808,4079.99999959,3814.1818178,473.939393892,3817.78787841,729.454545382,4192.8181814,605.818181758,4423.09090865,469.818181771,4125.33333292,3284.60606028,4342.21212078,3280.48484816,4789.8787874,2987.87878758,4010.96969657,535.757575704,4316.96969654,28.8484848456,4195.90909049,4207.75757534,4710.03030256,3836.84848446,4360.24242381,189.575757557,42.0,42.0,?
2017-08-07 12:15:48.323932,4427.21212077,4030.54545414,4060.42424202,4079.99999959,3814.1818178,473.939393892,3819.33333295,729.454545382,4194.36363594,605.818181758,4422.06060562,469.818181771,4118.63636322,3284.60606028,4343.75757532,3280.48484816,4795.03030255,2987.87878758,4010.96969657,535.757575704,4313.87878745,28.8484848456,4196.93939352,4207.75757534,4705.90909044,3836.84848446,4353.03030259,189.575757557,42.0,42.0,?
2017-08-07 12:15:48.329954,4433.39393895,4030.54545414,4063.51515111,4079.99999959,3815.21212083,473.939393892,3819.84848447,729.454545382,4201.57575716,605.818181758,4438.03030259,469.818181771,4138.2121208,3284.60606028,4351.48484805,3280.48484816,4792.96969649,2987.87878758,4016.12121172,535.757575704,4323.66666623,28.8484848456,4198.99999958,4207.75757534,4716.72727226,3836.84848446,4356.12121169,189.575757557,42.0,42.0,?
2017-08-07 12:15:48.333347,4441.63636319,4030.54545414,4060.93939353,4079.99999959,3814.69696932,473.939393892,3818.30302992,729.454545382,4203.63636322,605.818181758,4446.27272683,469.818181771,4144.90909049,3284.60606028,4353.54545411,3280.48484816,4786.78787831,2987.87878758,4021.27272687,535.757575704,4334.48484805,28.8484848456,4207.24242382,4207.75757534,4725.48484801,3836.84848446,4363.3333329,189.575757557,42.0,42.0,?
2017-08-07 12:15:48.339592,4441.63636319,4030.54545414,4059.39393899,4079.99999959,3816.24242386,473.939393892,3823.45454507,729.454545382,4205.18181776,605.818181758,4441.12121168,469.818181771,4140.27272686,3284.60606028,4348.39393896,3280.48484816,4787.30302982,2987.87878758,4021.78787839,535.757575704,4333.45454502,28.8484848456,4209.8181814,4207.75757534,4723.42424195,3836.84848446,4364.87878744,189.575757557,42.0,42.0,?
2017-08-07 12:15:48.345897,4435.96969653,4030.54545414,4062.48484808,4079.99999959,3816.75757538,473.939393892,3829.12121174,729.454545382,4209.30302988,605.818181758,4443.18181774,469.818181771,4155.72727231,3284.60606028,4350.45454502,3280.48484816,4787.30302982,2987.87878758,4020.24242384,535.757575704,4329.3333329,28.8484848456,4204.66666625,4207.75757534,4719.30302983,3836.84848446,4361.78787835,189.575757557,42.0,42.0,?
2017-08-07 12:15:48.349670,4432.87878744,4030.54545414,4061.45454505,4079.99999959,3813.66666629,473.939393892,3824.99999962,729.454545382,4211.36363594,605.818181758,4451.93939349,469.818181771,4177.36363595,3284.60606028,4360.75757532,3280.48484816,4779.06060558,2987.87878758,4016.12121172,535.757575704,4326.24242381,28.8484848456,4206.72727231,4207.75757534,4712.09090862,3836.84848446,4360.24242381,189.575757557,42.0,42.0,?
2017-08-07 12:15:48.356121,4433.90909047,4030.54545414,4059.9090905,4079.99999959,3811.09090871,473.939393892,3821.39393901,729.454545382,4211.36363594,605.818181758,4452.45454501,469.818181771,4177.87878746,3284.60606028,4362.81818138,3280.48484816,4775.96969649,2987.87878758,4014.57575717,535.757575704,4319.0303026,28.8484848456,4207.24242382,4207.75757534,4706.93939347,3836.84848446,4358.18181775,189.575757557,42.0,42.0,?
2017-08-07 12:15:48.364227,4436.99999956,4030.54545414,4061.96969656,4079.99999959,3814.1818178,473.939393892,3824.4848481,729.454545382,4219.09090867,605.818181758,4450.39393895,469.818181771,4167.06060564,3284.60606028,4356.6363632,3280.48484816,4777.51515104,2987.87878758,4014.57575717,535.757575704,4317.48484805,28.8484848456,4208.27272685,4207.75757534,4711.06060559,3836.84848446,4357.66666623,189.575757557,42.0,42.0,?
2017-08-07 12:15:48.372976,4440.09090865,4030.54545414,4062.48484808,4079.99999959,3817.78787841,473.939393892,3827.06060568,729.454545382,4224.75757534,605.818181758,4449.36363592,469.818181771,4161.39393898,3284.60606028,4356.6363632,3280.48484816,4776.99999952,2987.87878758,4016.63636323,535.757575704,4327.27272684,28.8484848456,4217.03030261,4207.75757534,4718.2727268,3836.84848446,4361.27272684,189.575757557,42.0,42.0,?
2017-08-07 12:15:48.379926,4438.5454541,4030.54545414,4061.45454505,4079.99999959,3815.72727235,473.939393892,3824.4848481,729.454545382,4217.54545412,605.818181758,4444.72727228,469.818181771,4157.78787837,3284.60606028,4360.75757532,3280.48484816,4771.33333286,2987.87878758,4019.21212081,535.757575704,4333.45454502,28.8484848456,4221.15151473,4207.75757534,4720.84848438,3836.84848446,4362.30302987,189.575757557,42.0,42.0,?
2017-08-07 12:15:48.389762,4439.06060562,4030.54545414,4065.06060565,4079.99999959,3813.66666629,473.939393892,3822.93939356,729.454545382,4209.8181814,605.818181758,4437.51515107,469.818181771,4154.18181777,3284.60606028,4359.21212078,3280.48484816,4762.5757571,2987.87878758,4024.36363596,535.757575704,4329.3333329,28.8484848456,4219.60606018,4207.75757534,4724.45454498,3836.84848446,4360.75757532,189.575757557,42.0,42.0,?
2017-08-07 12:15:48.405739,4447.30302986,4030.54545414,4068.66666626,4079.99999959,3815.21212083,473.939393892,3823.45454507,729.454545382,4210.33333291,605.818181758,4435.45454501,469.818181771,4155.72727231,3284.60606028,4354.57575714,3280.48484816,4758.96969649,2987.87878758,4027.96969657,535.757575704,4327.27272684,28.8484848456,4220.1212117,4207.75757534,4726.51515104,3836.84848446,4364.36363593,189.575757557,42.0,42.0,?
2017-08-07 12:15:48.406021,4449.87878743,4030.54545414,4070.72727232,4079.99999959,3818.81818144,473.939393892,3827.57575719,729.454545382,4208.27272685,605.818181758,4433.39393895,469.818181771,4152.63636322,3284.60606028,4347.36363593,3280.48484816,4759.48484801,2987.87878758,4021.27272687,535.757575704,4330.87878745,28.8484848456,4222.69696927,4207.75757534,4722.90909044,3836.84848446,4371.06060562,189.575757557,42.0,42.0,?
2017-08-07 12:15:48.416588,4448.33333289,4030.54545414,4071.75757535,4079.99999959,3820.36363598,473.939393892,3830.15151477,729.454545382,4204.15151473,605.818181758,4428.2424238,469.818181771,4142.84848443,3284.60606028,4337.57575714,3280.48484816,4752.78787831,2987.87878758,4015.09090869,535.757575704,4335.51515108,28.8484848456,4220.1212117,4207.75757534,4723.93939347,3836.84848446,4374.15151471,189.575757557,42.0,42.0,?
2017-08-07 12:15:48.437770,4448.8484844,4030.54545414,4070.21212081,4079.99999959,3815.72727235,473.939393892,3823.96969659,729.454545382,4211.36363594,605.818181758,4449.36363592,469.818181771,4159.33333292,3284.60606028,4348.90909047,3280.48484816,4752.2727268,2987.87878758,4023.84848445,535.757575704,4331.90909048,28.8484848456,4220.1212117,4207.75757534,4720.33333286,3836.84848446,4372.60606017,189.575757557,42.0,42.0,?
2017-08-07 12:15:48.444514,4448.8484844,4030.54545414,4070.21212081,4079.99999959,3815.72727235,473.939393892,3823.96969659,729.454545382,4211.36363594,605.818181758,4449.36363592,469.818181771,4159.33333292,3284.60606028,4348.90909047,3280.48484816,4752.2727268,2987.87878758,4023.84848445,535.757575704,4331.90909048,28.8484848456,4220.1212117,4207.75757534,4720.33333286,3836.84848446,4370.54545411,189.575757557,42.0,42.0,?
2017-08-07 12:15:48.448943,4446.27272683,4030.54545414,4075.87878747,4079.99999959,3816.75757538,473.939393892,3826.03030265,729.454545382,4211.36363594,605.818181758,4445.2424238,469.818181771,4159.84848443,3284.60606028,4355.60606017,3280.48484816,4751.75757528,2987.87878758,4021.78787839,535.757575704,4330.36363593,28.8484848456,4222.69696927,4207.75757534,4715.69696923,3836.84848446,4373.12121168,189.575757557,42.0,42.0,?
2017-08-07 12:15:48.452169,4450.39393895,4030.54545414,4078.45454505,4079.99999959,3816.75757538,473.939393892,3827.06060568,729.454545382,4211.36363594,605.818181758,4437.51515107,469.818181771,4155.2121208,3284.60606028,4353.03030259,3280.48484816,4741.45454498,2987.87878758,4023.84848445,535.757575704,4336.54545411,28.8484848456,4219.60606018,4207.75757534,4725.48484801,3836.84848446,4377.2424238,189.575757557,42.0,42.0,?
2017-08-07 12:15:48.455030,4451.93939349,4030.54545414,4077.93939353,4079.99999959,3814.69696932,473.939393892,3825.51515113,729.454545382,4211.36363594,605.818181758,4445.75757531,469.818181771,4158.8181814,3284.60606028,4351.99999956,3280.48484816,4736.30302983,2987.87878758,4024.87878748,535.757575704,4346.84848441,28.8484848456,4220.63636321,4207.75757534,4735.2727268,3836.84848446,4374.15151471,189.575757557,42.0,42.0,?
2017-08-07 12:15:48.461652,4446.78787834,4030.54545414,4076.9090905,4079.99999959,3814.69696932,473.939393892,3824.99999962,729.454545382,4209.8181814,605.818181758,4446.78787834,469.818181771,4158.30302989,3284.60606028,4349.42424199,3280.48484816,4738.8787874,2987.87878758,4025.39393899,535.757575704,4348.39393896,28.8484848456,4232.48484806,4207.75757534,4734.24242377,3836.84848446,4370.54545411,189.575757557,42.0,42.0,?
2017-08-07 12:15:48.465980,4445.2424238,4030.54545414,4074.33333293,4079.99999959,3812.63636326,473.939393892,3821.90909053,729.454545382,4208.27272685,605.818181758,4431.33333289,469.818181771,4147.99999959,3284.60606028,4339.12121169,3280.48484816,4739.90909044,2987.87878758,4027.45454505,535.757575704,4344.27272684,28.8484848456,4237.63636321,4207.75757534,4727.54545407,3836.84848446,4373.6363632,189.575757557,42.0,42.0,?
2017-08-07 12:15:48.474776,4447.81818137,4030.54545414,4075.87878747,4079.99999959,3810.06060568,473.939393892,3820.36363598,729.454545382,4204.66666625,605.818181758,4422.57575713,469.818181771,4142.33333292,3284.60606028,4332.93939351,3280.48484816,4738.8787874,2987.87878758,4023.33333293,535.757575704,4346.3333329,28.8484848456,4231.96969655,4207.75757534,4727.54545407,3836.84848446,4375.18181774,189.575757557,42.0,42.0,?
2017-08-07 12:15:48.481827,4453.48484804,4030.54545414,4079.99999959,4079.99999959,3810.06060568,473.939393892,3823.96969659,729.454545382,4202.09090867,605.818181758,4423.09090865,469.818181771,4149.54545413,3284.60606028,4337.06060563,3280.48484816,4735.2727268,2987.87878758,4018.6969693,535.757575704,4357.66666623,28.8484848456,4231.45454503,4207.75757534,4742.48484801,3836.84848446,4376.21212077,189.575757557,42.0,42.0,?
2017-08-07 12:15:48.489290,4461.21212077,4030.54545414,4081.03030262,4079.99999959,3810.06060568,473.939393892,3823.96969659,729.454545382,4204.66666625,605.818181758,4423.09090865,469.818181771,4158.30302989,3284.60606028,4340.15151472,3280.48484816,4728.5757571,2987.87878758,4025.39393899,535.757575704,4368.48484805,28.8484848456,4239.69696927,4207.75757534,4755.8787874,3836.84848446,4383.42424199,189.575757557,42.0,42.0,?
2017-08-07 12:15:48.511022,4461.72727228,4030.54545414,4079.99999959,4079.99999959,3811.09090871,473.939393892,3821.39393901,729.454545382,4201.06060564,605.818181758,4422.06060562,469.818181771,4156.24242383,3284.60606028,4336.54545411,3280.48484816,4727.54545407,2987.87878758,4030.03030263,535.757575704,4368.99999956,28.8484848456,4244.84848442,4207.75757534,4755.8787874,3836.84848446,4388.57575714,189.575757557,42.0,42.0,?
2017-08-07 12:15:48.512214,4459.66666622,4030.54545414,4081.54545414,4079.99999959,3809.54545416,473.939393892,3822.42424204,729.454545382,4210.84848443,605.818181758,4424.63636319,469.818181771,4153.66666625,3284.60606028,4338.60606017,3280.48484816,4735.2727268,2987.87878758,4028.48484808,535.757575704,4363.3333329,28.8484848456,4240.7272723,4207.75757534,4748.15151468,3836.84848446,4383.42424199,189.575757557,42.0,42.0,?
2017-08-07 12:15:48.513961,4459.15151471,4030.54545414,4082.06060565,4079.99999959,3813.15151477,473.939393892,3825.51515113,729.454545382,4220.1212117,605.818181758,4436.48484804,469.818181771,4161.39393898,3284.60606028,4345.81818138,3280.48484816,4729.60606013,2987.87878758,4032.09090869,535.757575704,4357.66666623,28.8484848456,4244.84848442,4207.75757534,4749.69696922,3836.84848446,4381.36363593,189.575757557,42.0,42.0,?
2017-08-07 12:15:48.527621,4456.06060561,4030.54545414,4080.51515111,4079.99999959,3809.54545416,473.939393892,3820.8787875,729.454545382,4219.60606018,605.818181758,4435.96969653,469.818181771,4151.60606019,3284.60606028,4337.06060563,3280.48484816,4722.39393892,2987.87878758,4027.45454505,535.757575704,4356.12121169,28.8484848456,4242.27272685,4207.75757534,4747.12121165,3836.84848446,4379.30302987,189.575757557,42.0,42.0,?
2017-08-07 12:15:48.528001,4456.06060561,4030.54545414,4080.51515111,4079.99999959,3809.54545416,473.939393892,3820.8787875,729.454545382,4219.60606018,605.818181758,4435.96969653,469.818181771,4151.60606019,3284.60606028,4337.06060563,3280.48484816,4722.39393892,2987.87878758,4027.45454505,535.757575704,4356.12121169,28.8484848456,4242.27272685,4207.75757534,4747.12121165,3836.84848446,4379.30302987,189.575757557,42.0,42.0,?
2017-08-07 12:15:48.539703,4458.12121168,4030.54545414,4078.45454505,4079.99999959,3802.33333295,473.939393892,3819.33333295,729.454545382,4217.03030261,605.818181758,4433.90909047,469.818181771,4145.42424201,3284.60606028,4337.57575714,3280.48484816,4728.06060559,2987.87878758,4028.9999996,535.757575704,4356.12121169,28.8484848456,4240.7272723,4207.75757534,4741.45454498,3836.84848446,4376.72727229,189.575757557,42.0,42.0,?
2017-08-07 12:15:48.544901,4463.27272683,4030.54545414,4085.15151474,4079.99999959,3810.06060568,473.939393892,3833.75757537,729.454545382,4221.66666624,605.818181758,4438.03030259,469.818181771,4153.15151474,3284.60606028,4348.39393896,3280.48484816,4735.2727268,2987.87878758,4031.57575717,535.757575704,4356.6363632,28.8484848456,4256.18181776,4207.75757534,4740.42424195,3836.84848446,4377.2424238,189.575757557,42.0,42.0,?
2017-08-07 12:15:48.555868,4463.27272683,4030.54545414,4085.15151474,4079.99999959,3810.06060568,473.939393892,3833.75757537,729.454545382,4221.66666624,605.818181758,4439.57575713,469.818181771,4162.93939352,3284.60606028,4353.54545411,3280.48484816,4735.2727268,2987.87878758,4031.57575717,535.757575704,4361.27272684,28.8484848456,4256.18181776,4207.75757534,4748.15151468,3836.84848446,4380.3333329,189.575757557,42.0,42.0,?
2017-08-07 12:15:48.560600,4465.33333289,4030.54545414,4083.6060602,4079.99999959,3809.03030265,473.939393892,3824.4848481,729.454545382,4216.51515109,605.818181758,4432.87878744,469.818181771,4162.42424201,3284.60606028,4346.84848441,3280.48484816,4732.18181771,2987.87878758,4028.9999996,535.757575704,4366.9393935,28.8484848456,4252.06060564,4207.75757534,4757.93939346,3836.84848446,4383.9393935,189.575757557,42.0,42.0,?
2017-08-07 12:15:48.566940,4463.27272683,4030.54545414,4078.45454505,4079.99999959,3807.99999962,473.939393892,3825.51515113,729.454545382,4215.48484806,605.818181758,4429.27272683,469.818181771,4156.24242383,3284.60606028,4341.69696926,3280.48484816,4730.63636316,2987.87878758,4026.93939354,535.757575704,4363.84848441,28.8484848456,4251.03030261,4207.75757534,4757.42424195,3836.84848446,4383.9393935,189.575757557,42.0,42.0,?
2017-08-07 12:15:48.576071,4460.18181774,4030.54545414,4078.96969656,4079.99999959,3811.09090871,473.939393892,3833.75757537,729.454545382,4220.63636321,605.818181758,4432.36363592,469.818181771,4156.24242383,3284.60606028,4345.30302987,3280.48484816,4732.18181771,2987.87878758,4031.57575717,535.757575704,4361.78787835,28.8484848456,4254.1212117,4207.75757534,4748.66666619,3836.84848446,4380.3333329,189.575757557,42.0,42.0,?
2017-08-07 12:15:48.583395,4455.03030258,4030.54545414,4082.06060565,4079.99999959,3809.03030265,473.939393892,3830.66666628,729.454545382,4218.57575715,605.818181758,4428.75757531,469.818181771,4160.36363595,3284.60606028,4345.30302987,3280.48484816,4736.30302983,2987.87878758,4036.21212081,535.757575704,4360.24242381,28.8484848456,4255.15151473,4207.75757534,4739.90909044,3836.84848446,4378.27272683,189.575757557,42.0,42.0,?
2017-08-07 12:15:48.590996,4446.27272683,4030.54545414,4078.45454505,4079.99999959,3802.33333295,473.939393892,3820.8787875,729.454545382,4212.90909049,605.818181758,4422.57575713,469.818181771,4158.8181814,3284.60606028,4339.6363632,3280.48484816,4737.84848437,2987.87878758,4027.45454505,535.757575704,4349.9393935,28.8484848456,4251.03030261,4207.75757534,4732.18181771,3836.84848446,4372.09090865,189.575757557,42.0,42.0,?
2017-08-07 12:15:48.603749,4447.81818137,4030.54545414,4078.45454505,4079.99999959,3800.78787841,473.939393892,3821.90909053,729.454545382,4215.99999958,605.818181758,4424.12121168,469.818181771,4155.2121208,3284.60606028,4338.60606017,3280.48484816,4736.30302983,2987.87878758,4023.33333293,535.757575704,4344.78787835,28.8484848456,4250.51515109,4207.75757534,4729.09090862,3836.84848446,4367.96969653,189.575757557,42.0,42.0,?
2017-08-07 12:15:48.609507,4467.39393895,4030.54545414,4089.78787838,4079.99999959,3806.45454507,473.939393892,3830.15151477,729.454545382,4214.45454503,605.818181758,4422.06060562,469.818181771,4155.2121208,3284.60606028,4340.66666623,3280.48484816,4740.42424195,2987.87878758,4038.27272687,535.757575704,4357.66666623,28.8484848456,4256.69696927,4207.75757534,4738.36363589,3836.84848446,4379.30302987,189.575757557,42.0,42.0,?
2017-08-07 12:15:48.617084,4467.39393895,4030.54545414,4092.87878747,4079.99999959,3811.60606022,473.939393892,3832.72727234,729.454545382,4214.45454503,605.818181758,4418.45454501,469.818181771,4152.12121171,3284.60606028,4339.6363632,3280.48484816,4739.39393892,2987.87878758,4043.42424202,535.757575704,4370.03030259,28.8484848456,4257.21212079,4207.75757534,4751.24242377,3836.84848446,4389.60606017,189.575757557,42.0,42.0,?
2017-08-07 12:15:48.624399,4466.87878743,4030.54545414,4085.66666626,4079.99999959,3811.60606022,473.939393892,3829.12121174,729.454545382,4217.54545412,605.818181758,4422.57575713,469.818181771,4144.90909049,3284.60606028,4336.0303026,3280.48484816,4735.78787831,2987.87878758,4032.09090869,535.757575704,4365.39393896,28.8484848456,4250.51515109,4207.75757534,4754.33333286,3836.84848446,4385.48484805,189.575757557,42.0,42.0,?
2017-08-07 12:15:48.630487,4462.2424238,4030.54545414,4083.09090868,4079.99999959,3807.99999962,473.939393892,3824.99999962,729.454545382,4220.1212117,605.818181758,4421.5454541,469.818181771,4142.33333292,3284.60606028,4334.99999957,3280.48484816,4743.51515104,2987.87878758,4034.15151475,535.757575704,4357.66666623,28.8484848456,4251.03030261,4207.75757534,4746.60606013,3836.84848446,4380.84848441,189.575757557,42.0,42.0,?
2017-08-07 12:15:48.639239,4456.06060561,4026.42424202,4084.12121171,4079.99999959,3805.42424204,473.939393892,3822.93939356,729.454545382,4216.51515109,605.818181758,4416.39393895,469.818181771,4141.30302989,3284.60606028,4334.48484805,3280.48484816,4746.09090862,2987.87878758,4041.87878747,535.757575704,4355.09090866,28.8484848456,4254.1212117,4207.75757534,4740.42424195,3836.84848446,4380.84848441,189.575757557,42.0,42.0,?
2017-08-07 12:15:48.650276,4451.42424198,4026.42424202,4078.96969656,4079.99999959,3804.39393901,473.939393892,3819.84848447,729.454545382,4215.48484806,605.818181758,4423.09090865,469.818181771,4142.33333292,3284.60606028,4328.81818139,3280.48484816,4736.30302983,2987.87878758,4030.03030263,535.757575704,4349.9393935,28.8484848456,4243.81818139,4207.75757534,4737.84848437,3836.84848446,4373.12121168,189.575757557,42.0,42.0,?
2017-08-07 12:15:48.657067,4447.81818137,4026.42424202,4078.96969656,4079.99999959,3802.84848447,473.939393892,3818.30302992,729.454545382,4217.54545412,605.818181758,4432.87878744,469.818181771,4148.5151511,3284.60606028,4331.90909048,3280.48484816,4740.42424195,2987.87878758,4024.36363596,535.757575704,4341.69696926,28.8484848456,4236.09090867,4207.75757534,4730.63636316,3836.84848446,4364.36363593,185.454545436,42.0,42.0,?
2017-08-07 12:15:48.663397,4449.87878743,4026.42424202,4089.27272686,4079.99999959,3803.8787875,465.69696965,3821.90909053,729.454545382,4217.54545412,605.818181758,4430.81818138,469.818181771,4159.33333292,3284.60606028,4341.18181775,3280.48484816,4753.30302983,2987.87878758,4039.81818141,535.757575704,4342.21212078,28.8484848456,4243.81818139,4207.75757534,4727.03030256,3836.84848446,4370.54545411,185.454545436,42.0,42.0,?
2017-08-07 12:15:48.671094,4460.18181774,4026.42424202,4095.45454505,4079.99999959,3810.57575719,465.69696965,3830.66666628,733.575757502,4219.09090867,605.818181758,4429.27272683,469.818181771,4171.18181776,3284.60606028,4345.81818138,3280.48484816,4753.30302983,2987.87878758,4048.06060566,535.757575704,4354.06060563,28.8484848456,4249.99999958,4207.75757534,4736.81818134,3836.84848446,4384.45454502,185.454545436,42.0,42.0,?
2017-08-07 12:15:48.677337,4464.30302986,4026.42424202,4094.42424201,4079.99999959,3814.69696932,465.69696965,3832.72727234,733.575757502,4219.09090867,605.818181758,4431.84848441,469.818181771,4172.72727231,3284.60606028,4346.84848441,3280.48484816,4753.30302983,2987.87878758,4047.54545414,535.757575704,4364.36363593,28.8484848456,4254.1212117,4207.75757534,4748.66666619,3836.84848446,4388.06060562,185.454545436,42.0,42.0,?
2017-08-07 12:15:48.685305,4460.18181774,4026.42424202,4094.93939353,4079.99999959,3810.57575719,465.69696965,3830.15151477,733.575757502,4213.93939352,605.818181758,4430.81818138,465.69696965,4158.30302989,3284.60606028,4342.21212078,3280.48484816,4758.45454498,2987.87878758,4051.66666626,535.757575704,4365.90909047,28.8484848456,4258.75757533,4207.75757534,4750.21212074,3836.84848446,4387.54545411,185.454545436,42.0,42.0,?
2017-08-07 12:15:48.693877,4462.75757531,4026.42424202,4098.54545414,4079.99999959,3806.96969659,465.69696965,3831.1818178,733.575757502,4214.96969655,605.818181758,4430.81818138,465.69696965,4144.90909049,3284.60606028,4333.45454502,3280.48484816,4758.45454498,2987.87878758,4053.72727232,535.757575704,4365.90909047,28.8484848456,4255.66666624,4207.75757534,4747.63636316,3836.84848446,4390.6363632,185.454545436,42.0,42.0,?
2017-08-07 12:15:48.713600,4462.2424238,4026.42424202,4095.96969656,4079.99999959,3804.90909053,465.69696965,3831.1818178,733.575757502,4228.36363594,605.818181758,4429.78787834,465.69696965,4141.8181814,3284.60606028,4337.57575714,3305.21212088,4760.51515104,2996.12121182,4044.45454505,535.757575704,4361.78787835,28.8484848456,4251.54545412,4207.75757534,4742.48484801,3836.84848446,4386.51515108,185.454545436,42.0,42.0,?
2017-08-07 12:15:48.713691,4462.2424238,4026.42424202,4095.96969656,4079.99999959,3804.90909053,465.69696965,3831.1818178,733.575757502,4228.36363594,605.818181758,4429.78787834,465.69696965,4141.8181814,3284.60606028,4337.57575714,3305.21212088,4760.51515104,2996.12121182,4044.45454505,535.757575704,4361.78787835,28.8484848456,4251.54545412,4207.75757534,4742.48484801,3836.84848446,4386.51515108,185.454545436,42.0,42.0,?
2017-08-07 12:15:48.723108,4461.72727228,4026.42424202,4099.06060565,4079.99999959,3804.90909053,465.69696965,3830.15151477,733.575757502,4222.69696927,605.818181758,4431.33333289,465.69696965,4160.36363595,3284.60606028,4342.21212078,3305.21212088,4763.60606013,2996.12121182,4047.54545414,535.757575704,4364.87878744,28.8484848456,4254.63636321,4207.75757534,4750.72727225,3836.84848446,4392.18181774,185.454545436,42.0,42.0,?
2017-08-07 12:15:48.724738,4473.57575713,4026.42424202,4104.72727232,4079.99999959,3805.93939356,465.69696965,3832.72727234,733.575757502,4218.57575715,605.818181758,4434.9393935,465.69696965,4173.24242383,3284.60606028,4341.69696926,3305.21212088,4768.24242377,2996.12121182,4056.81818141,535.757575704,4376.72727229,20.606060604,4254.1212117,4207.75757534,4757.93939346,3836.84848446,4398.87878744,185.454545436,42.0,42.0,?
2017-08-07 12:15:48.733453,4472.5454541,4026.42424202,4100.6060602,4079.99999959,3802.33333295,465.69696965,3829.63636325,733.575757502,4218.06060564,605.818181758,4434.42424198,465.69696965,4161.90909049,3284.60606028,4336.0303026,3305.21212088,4763.60606013,2996.12121182,4051.15151475,535.757575704,4376.21212077,20.606060604,4253.60606018,4203.63636322,4755.8787874,3836.84848446,4395.27272683,185.454545436,42.0,42.0,?
2017-08-07 12:15:48.740048,4460.69696925,4026.42424202,4093.9090905,4079.99999959,3795.63636326,465.69696965,3820.8787875,733.575757502,4214.96969655,605.818181758,4429.27272683,465.69696965,4151.60606019,3284.60606028,4330.36363593,3305.21212088,4755.36363589,2996.12121182,4038.27272687,535.757575704,4364.87878744,20.606060604,4249.99999958,4203.63636322,4746.60606013,3832.72727234,4389.09090865,185.454545436,42.0,42.0,?
2017-08-07 12:15:48.748811,4456.06060561,4026.42424202,4095.96969656,4079.99999959,3791.51515114,465.69696965,3816.75757538,733.575757502,4214.45454503,605.818181758,4431.33333289,465.69696965,4158.8181814,3284.60606028,4334.48484805,3305.21212088,4756.39393892,2996.12121182,4040.84848444,535.757575704,4358.69696926,20.606060604,4243.81818139,4203.63636322,4739.39393892,3832.72727234,4383.9393935,185.454545436,42.0,42.0,?
2017-08-07 12:15:48.755000,4454.51515107,4026.42424202,4098.03030262,4079.99999959,3789.45454508,465.69696965,3817.78787841,733.575757502,4224.75757534,605.818181758,4445.75757531,465.69696965,4163.45454504,3284.60606028,4336.0303026,3305.21212088,4755.8787874,2996.12121182,4043.42424202,535.757575704,4353.03030259,24.7272727248,4238.15151473,4203.63636322,4736.81818134,3832.72727234,4379.81818138,185.454545436,42.0,42.0,?
2017-08-07 12:15:48.763193,4449.87878743,4026.42424202,4092.87878747,4079.99999959,3789.96969659,465.69696965,3818.81818144,733.575757502,4231.96969655,605.818181758,4449.87878743,465.69696965,4157.27272686,3284.60606028,4331.39393896,3305.21212088,4751.24242377,2996.12121182,4033.63636323,535.757575704,4345.81818138,24.7272727248,4235.06060564,4203.63636322,4733.21212074,3832.72727234,4374.66666623,185.454545436,42.0,42.0,?
2017-08-07 12:15:48.772273,4446.27272683,4026.42424202,4095.96969656,4079.99999959,3788.93939356,465.69696965,3818.30302992,733.575757502,4224.75757534,605.818181758,4435.45454501,465.69696965,4153.66666625,3284.60606028,4332.93939351,3305.21212088,4754.84848437,2996.12121182,4032.09090869,535.757575704,4347.36363593,24.7272727248,4237.1212117,4203.63636322,4726.51515104,3832.72727234,4372.09090865,185.454545436,42.0,42.0,?
2017-08-07 12:15:48.780018,4448.33333289,4026.42424202,4106.78787838,4079.99999959,3790.99999962,465.69696965,3818.30302992,733.575757502,4218.06060564,605.818181758,4429.78787834,465.69696965,4157.27272686,3284.60606028,4335.51515108,3305.21212088,4762.06060558,2996.12121182,4038.78787838,535.757575704,4349.9393935,24.7272727248,4245.87878745,4203.63636322,4725.99999953,3832.72727234,4373.12121168,185.454545436,42.0,42.0,?
2017-08-07 12:15:48.790305,4456.06060561,4026.42424202,4105.75757535,4079.99999959,3798.21212083,465.69696965,3820.36363598,733.575757502,4218.06060564,605.818181758,4434.9393935,465.69696965,4155.2121208,3284.60606028,4330.36363593,3305.21212088,4761.03030255,2996.12121182,4037.75757535,535.757575704,4348.39393896,24.7272727248,4248.96969654,4203.63636322,4730.12121165,3832.72727234,4375.18181774,185.454545436,42.0,42.0,?
2017-08-07 12:15:48.795166,4458.12121168,4026.42424202,4100.09090868,4079.99999959,3800.78787841,465.69696965,3823.96969659,733.575757502,4210.33333291,605.818181758,4426.69696925,465.69696965,4147.99999959,3284.60606028,4322.6363632,3305.21212088,4756.90909043,2996.12121182,4032.09090869,535.757575704,4347.36363593,24.7272727248,4238.66666624,4203.63636322,4730.12121165,3832.72727234,4376.21212077,185.454545436,42.0,42.0,?
2017-08-07 12:15:48.802418,4448.33333289,4026.42424202,4102.66666626,4079.99999959,3800.78787841,465.69696965,3820.8787875,733.575757502,4203.63636322,605.818181758,4416.90909047,465.69696965,4156.75757534,3284.60606028,4315.42424199,3305.21212088,4748.15151468,2996.12121182,4028.9999996,535.757575704,4348.39393896,24.7272727248,4235.57575715,4203.63636322,4735.78787831,3832.72727234,4376.72727229,185.454545436,42.0,42.0,?
2017-08-07 12:15:48.811824,4448.33333289,4026.42424202,4102.66666626,4079.99999959,3800.78787841,465.69696965,3820.8787875,733.575757502,4203.63636322,605.818181758,4426.18181774,465.69696965,4156.75757534,3284.60606028,4315.42424199,3305.21212088,4748.15151468,2996.12121182,4028.9999996,535.757575704,4348.39393896,24.7272727248,4235.57575715,4203.63636322,4735.78787831,3832.72727234,4374.15151471,185.454545436,42.0,42.0,?
2017-08-07 12:15:48.823009,4448.33333289,4026.42424202,4100.6060602,4079.99999959,3803.36363598,465.69696965,3828.60606022,733.575757502,4212.90909049,605.818181758,4441.63636319,465.69696965,4157.27272686,3284.60606028,4321.60606017,3305.21212088,4756.39393892,2996.12121182,4029.51515111,535.757575704,4338.09090866,24.7272727248,4237.1212117,4203.63636322,4725.48484801,3832.72727234,4363.84848441,185.454545436,42.0,42.0,?
2017-08-07 12:15:48.826455,4439.57575713,4026.42424202,4100.6060602,4079.99999959,3799.24242386,465.69696965,3827.57575719,733.575757502,4218.57575715,605.818181758,4448.33333289,465.69696965,4157.27272686,3284.60606028,4325.72727229,3305.21212088,4758.45454498,2996.12121182,4021.78787839,535.757575704,4321.09090866,24.7272727248,4232.48484806,4203.63636322,4707.45454498,3832.72727234,4356.6363632,185.454545436,42.0,42.0,?
2017-08-07 12:15:48.834831,4432.36363592,4026.42424202,4104.2121208,4079.99999959,3798.21212083,465.69696965,3823.96969659,733.575757502,4221.66666624,605.818181758,4443.18181774,465.69696965,4154.18181777,3284.60606028,4321.09090866,3305.21212088,4743.51515104,2996.12121182,4014.57575717,535.757575704,4316.96969654,24.7272727248,4224.75757534,4203.63636322,4702.81818135,3832.72727234,4360.24242381,185.454545436,42.0,42.0,?
2017-08-07 12:15:48.841898,4434.9393935,4026.42424202,4109.36363595,4079.99999959,3800.27272689,465.69696965,3828.09090871,733.575757502,4217.54545412,605.818181758,4434.42424198,465.69696965,4143.87878746,3284.60606028,4314.39393896,3305.21212088,4732.18181771,2996.12121182,4017.66666626,535.757575704,4326.24242381,24.7272727248,4218.06060564,4203.63636322,4711.06060559,3832.72727234,4361.78787835,185.454545436,42.0,42.0,?
2017-08-07 12:15:48.849721,4443.69696925,4026.42424202,4113.48484807,4079.99999959,3799.75757538,465.69696965,3831.1818178,733.575757502,4208.27272685,605.818181758,4431.84848441,465.69696965,4140.27272686,3284.60606028,4313.36363593,3305.21212088,4739.39393892,2996.12121182,4023.84848445,535.757575704,4331.90909048,24.7272727248,4218.06060564,4203.63636322,4712.60606013,3832.72727234,4361.27272684,185.454545436,42.0,42.0,?
2017-08-07 12:15:48.859254,4451.42424198,4026.42424202,4116.57575716,4079.99999959,3799.75757538,465.69696965,3830.66666628,733.575757502,4204.66666625,605.818181758,4429.27272683,465.69696965,4143.36363595,3284.60606028,4315.42424199,3305.21212088,4745.06060559,2996.12121182,4021.27272687,535.757575704,4333.96969654,24.7272727248,4225.78787837,4203.63636322,4712.09090862,3832.72727234,4367.96969653,185.454545436,42.0,42.0,?
2017-08-07 12:15:48.865548,4448.33333289,4026.42424202,4120.18181777,4079.99999959,3800.78787841,465.69696965,3831.69696931,733.575757502,4201.57575716,605.818181758,4420.51515107,465.69696965,4140.27272686,3284.60606028,4310.27272684,3305.21212088,4741.45454498,2996.12121182,4020.75757536,535.757575704,4334.99999957,24.7272727248,4230.93939352,4203.63636322,4717.24242377,3832.72727234,4371.06060562,185.454545436,42.0,42.0,?
2017-08-07 12:15:48.889628,4448.33333289,4026.42424202,4113.99999959,4079.99999959,3799.75757538,465.69696965,3826.54545416,733.575757502,4188.18181776,605.818181758,4413.81818138,465.69696965,4138.2121208,3284.60606028,4310.78787836,3305.21212088,4740.93939347,2996.12121182,4028.48484808,535.757575704,4341.69696926,24.7272727248,4235.57575715,4203.63636322,4723.93939347,3832.72727234,4368.48484805,185.454545436,42.0,42.0,?
2017-08-07 12:15:48.890200,4451.42424198,4026.42424202,4116.57575716,4079.99999959,3798.72727235,465.69696965,3824.4848481,733.575757502,4187.15151473,605.818181758,4416.90909047,465.69696965,4146.96969656,3284.60606028,4314.39393896,3305.21212088,4742.99999953,2996.12121182,4023.84848445,535.757575704,4345.30302987,24.7272727248,4236.09090867,4203.63636322,4726.51515104,3832.72727234,4374.66666623,185.454545436,42.0,42.0,?
2017-08-07 12:15:48.893402,4451.42424198,4026.42424202,4116.57575716,4079.99999959,3798.72727235,465.69696965,3824.4848481,733.575757502,4187.15151473,605.818181758,4416.90909047,465.69696965,4146.96969656,3284.60606028,4314.39393896,3305.21212088,4742.99999953,2996.12121182,4023.84848445,535.757575704,4345.30302987,24.7272727248,4236.09090867,4203.63636322,4726.51515104,3832.72727234,4374.66666623,185.454545436,42.0,42.0,?
2017-08-07 12:15:48.896134,4443.18181774,4026.42424202,4111.42424201,4079.99999959,3792.03030265,465.69696965,3821.39393901,733.575757502,4191.78787837,605.818181758,4416.39393895,465.69696965,4146.96969656,3284.60606028,4308.21212078,3305.21212088,4741.9696965,2996.12121182,4023.84848445,535.757575704,4334.99999957,24.7272727248,4227.33333291,4203.63636322,4724.45454498,3832.72727234,4367.45454502,185.454545436,42.0,42.0,?
2017-08-07 12:15:48.904946,4434.9393935,4026.42424202,4102.66666626,4079.99999959,3785.33333295,465.69696965,3818.30302992,733.575757502,4196.424242,605.818181758,4421.5454541,465.69696965,4137.18181777,3284.60606028,4299.96969654,3305.21212088,4730.12121165,2996.12121182,4017.66666626,535.757575704,4324.18181775,24.7272727248,4219.09090867,4203.63636322,4715.69696923,3832.72727234,4358.69696926,185.454545436,42.0,42.0,?
2017-08-07 12:15:48.912668,4436.99999956,4026.42424202,4106.78787838,4079.99999959,3786.36363599,465.69696965,3817.78787841,733.575757502,4198.48484806,605.818181758,4431.84848441,465.69696965,4132.03030262,3284.60606028,4298.93939351,3305.21212088,4719.30302983,2996.12121182,4007.87878748,535.757575704,4330.87878745,24.7272727248,4215.48484806,4203.63636322,4713.63636317,3832.72727234,4356.12121169,185.454545436,42.0,42.0,?
2017-08-07 12:15:48.919565,4443.18181774,4026.42424202,4114.5151511,4079.99999959,3788.93939356,465.69696965,3818.81818144,733.575757502,4199.5151511,605.818181758,4434.42424198,465.69696965,4137.18181777,3284.60606028,4300.48484805,3305.21212088,4727.54545407,2996.12121182,4012.51515111,535.757575704,4340.15151472,24.7272727248,4221.66666624,4203.63636322,4720.84848438,3832.72727234,4356.6363632,185.454545436,42.0,42.0,?
2017-08-07 12:15:48.928043,4443.18181774,4026.42424202,4115.03030262,4079.99999959,3788.42424205,465.69696965,3819.33333295,733.575757502,4204.15151473,605.818181758,4432.87878744,465.69696965,4138.72727231,3284.60606028,4303.57575715,3305.21212088,4739.39393892,2996.12121182,4025.90909051,535.757575704,4337.57575714,24.7272727248,4228.36363594,4203.63636322,4723.93939347,3832.72727234,4358.69696926,185.454545436,42.0,42.0,?
2017-08-07 12:15:48.937109,4441.12121168,4026.42424202,4117.60606019,4079.99999959,3788.93939356,465.69696965,3820.36363598,733.575757502,4207.75757534,605.818181758,4435.45454501,465.69696965,4141.8181814,3284.60606028,4307.18181775,3305.21212088,4736.81818134,2996.12121182,4026.42424202,535.757575704,4335.51515108,24.7272727248,4225.78787837,4203.63636322,4722.39393892,3832.72727234,4363.84848441,185.454545436,42.0,42.0,?
2017-08-07 12:15:48.943438,4445.2424238,4026.42424202,4122.75757535,4079.99999959,3789.96969659,465.69696965,3820.8787875,733.575757502,4202.09090867,605.818181758,4435.96969653,465.69696965,4152.12121171,3284.60606028,4308.7272723,3305.21212088,4728.5757571,2996.12121182,4017.15151475,535.757575704,4340.15151472,24.7272727248,4222.69696927,4203.63636322,4724.45454498,3832.72727234,4366.9393935,185.454545436,42.0,42.0,?
2017-08-07 12:15:48.953437,4448.8484844,4026.42424202,4124.81818141,4079.99999959,3789.96969659,465.69696965,3819.33333295,733.575757502,4196.424242,605.818181758,4431.84848441,465.69696965,4149.54545413,3284.60606028,4308.7272723,3305.21212088,4730.63636316,2996.12121182,4014.06060566,535.757575704,4347.87878744,24.7272727248,4226.8181814,4203.63636322,4730.63636316,3832.72727234,4364.87878744,185.454545436,42.0,42.0,?
2017-08-07 12:15:48.958593,4445.75757531,4026.42424202,4124.81818141,4079.99999959,3789.45454508,465.69696965,3817.27272689,733.575757502,4197.96969655,605.818181758,4430.81818138,465.69696965,4142.33333292,3284.60606028,4308.7272723,3305.21212088,4736.81818134,2996.12121182,4017.66666626,535.757575704,4346.84848441,24.7272727248,4227.33333291,4203.63636322,4729.60606013,3832.72727234,4364.36363593,185.454545436,42.0,42.0,?
2017-08-07 12:15:48.968017,4442.66666622,4026.42424202,4128.42424201,4079.99999959,3789.45454508,465.69696965,3820.8787875,733.575757502,4206.21212079,605.818181758,4431.33333289,465.69696965,4155.2121208,3284.60606028,4313.87878745,3305.21212088,4734.24242377,2996.12121182,4023.84848445,535.757575704,4338.60606017,24.7272727248,4224.24242382,4203.63636322,4723.93939347,3832.72727234,4366.9393935,185.454545436,42.0,42.0,?
2017-08-07 12:15:48.974184,4446.27272683,4026.42424202,4136.66666625,4079.99999959,3790.99999962,465.69696965,3826.03030265,733.575757502,4208.27272685,605.818181758,4430.81818138,465.69696965,4165.5151511,3284.60606028,4318.51515108,3305.21212088,4730.12121165,2996.12121182,4024.87878748,535.757575704,4338.60606017,24.7272727248,4227.84848443,4203.63636322,4725.48484801,3832.72727234,4367.96969653,185.454545436,42.0,42.0,?
2017-08-07 12:15:48.983185,4450.90909046,4026.42424202,4141.8181814,4079.99999959,3795.63636326,465.69696965,3824.4848481,733.575757502,4204.66666625,605.818181758,4431.84848441,465.69696965,4154.18181777,3284.60606028,4315.42424199,3305.21212088,4732.69696922,2996.12121182,4017.15151475,535.757575704,4345.81818138,24.7272727248,4227.33333291,4203.63636322,4730.63636316,3832.72727234,4366.42424199,185.454545436,42.0,42.0,?
2017-08-07 12:15:48.991343,4448.33333289,4026.42424202,4141.30302989,4079.99999959,3798.72727235,465.69696965,3823.45454507,733.575757502,4206.21212079,605.818181758,4432.87878744,465.69696965,4144.90909049,3284.60606028,4309.75757533,3305.21212088,4737.84848437,2996.12121182,4012.51515111,535.757575704,4348.39393896,24.7272727248,4221.15151473,4203.63636322,4734.24242377,3832.72727234,4365.90909047,185.454545436,42.0,42.0,?
2017-08-07 12:15:49.002696,4445.75757531,4026.42424202,4140.27272686,4079.99999959,3792.54545417,465.69696965,3822.93939356,733.575757502,4206.21212079,605.818181758,4426.69696925,465.69696965,4144.39393898,3284.60606028,4306.66666624,3305.21212088,4731.66666619,2996.12121182,4012.51515111,535.757575704,4345.30302987,24.7272727248,4218.06060564,4203.63636322,4736.81818134,3832.72727234,4368.48484805,185.454545436,42.0,42.0,?
2017-08-07 12:15:49.006281,4447.81818137,4026.42424202,4141.30302989,4079.99999959,3786.36363599,465.69696965,3818.30302992,733.575757502,4196.93939352,605.818181758,4416.39393895,465.69696965,4138.2121208,3284.60606028,4302.54545412,3305.21212088,4722.39393892,2996.12121182,4013.54545414,535.757575704,4343.75757532,24.7272727248,4219.09090867,4203.63636322,4735.78787831,3832.72727234,4367.45454502,185.454545436,42.0,42.0,?
2017-08-07 12:15:49.015135,4448.33333289,4026.42424202,4140.27272686,4079.99999959,3790.99999962,465.69696965,3817.78787841,733.575757502,4194.36363594,605.818181758,4420.51515107,465.69696965,4137.69696928,3284.60606028,4302.54545412,3305.21212088,4724.9696965,2996.12121182,4017.15151475,535.757575704,4350.45454502,24.7272727248,4223.7272723,4203.63636322,4734.75757528,3832.72727234,4366.42424199,185.454545436,42.0,42.0,?
2017-08-07 12:15:49.023247,4452.96969652,4026.42424202,4142.33333292,4079.99999959,3793.5757572,465.69696965,3821.39393901,733.575757502,4202.09090867,605.818181758,4432.36363592,465.69696965,4149.03030262,3284.60606028,4307.18181775,3305.21212088,4731.66666619,2996.12121182,4017.15151475,535.757575704,4357.66666623,24.7272727248,4220.1212117,4203.63636322,4740.93939347,3832.72727234,4369.51515108,185.454545436,42.0,42.0,?
2017-08-07 12:15:49.029877,4457.60606016,4026.42424202,4145.93939352,4079.99999959,3789.45454508,465.69696965,3820.8787875,733.575757502,4197.96969655,605.818181758,4428.75757531,465.69696965,4149.03030262,3284.60606028,4309.75757533,3305.21212088,4737.33333286,2996.12121182,4014.57575717,535.757575704,4354.06060563,24.7272727248,4218.06060564,4203.63636322,4745.06060559,3832.72727234,4373.6363632,185.454545436,42.0,42.0,?
2017-08-07 12:15:49.039600,4451.93939349,4026.42424202,4145.93939352,4079.99999959,3792.54545417,465.69696965,3819.84848447,733.575757502,4189.72727231,605.818181758,4418.45454501,465.69696965,4136.15151474,3284.60606028,4308.21212078,3305.21212088,4738.36363589,2996.12121182,4015.6060602,535.757575704,4348.39393896,24.7272727248,4225.27272685,4203.63636322,4739.39393892,3832.72727234,4374.66666623,185.454545436,42.0,42.0,?
2017-08-07 12:15:49.044858,4452.96969652,4026.42424202,4145.42424201,4079.99999959,3798.72727235,465.69696965,3822.93939356,733.575757502,4198.99999958,605.818181758,4426.18181774,465.69696965,4141.8181814,3284.60606028,4306.15151472,3305.21212088,4733.21212074,2996.12121182,4017.15151475,535.757575704,4349.9393935,24.7272727248,4231.45454503,4203.63636322,4736.81818134,3832.72727234,4373.12121168,185.454545436,42.0,42.0,?
2017-08-07 12:15:49.052991,4459.66666622,4026.42424202,4149.03030262,4079.99999959,3798.72727235,465.69696965,3824.99999962,733.575757502,4209.8181814,605.818181758,4440.60606016,465.69696965,4159.84848443,3284.60606028,4310.78787836,3305.21212088,4731.66666619,2996.12121182,4019.72727233,535.757575704,4353.54545411,24.7272727248,4231.96969655,4203.63636322,4741.9696965,3832.72727234,4371.57575714,185.454545436,42.0,42.0,?
2017-08-07 12:15:49.062597,4455.03030258,4026.42424202,4154.18181777,4079.99999959,3797.69696932,465.69696965,3821.39393901,733.575757502,4205.69696928,605.818181758,4439.06060562,465.69696965,4155.72727231,3284.60606028,4311.81818139,3305.21212088,4735.2727268,2996.12121182,4017.66666626,535.757575704,4353.54545411,24.7272727248,4228.87878746,4203.63636322,4741.9696965,3832.72727234,4368.48484805,185.454545436,42.0,42.0,?
2017-08-07 12:15:49.068992,4448.8484844,4026.42424202,4154.18181777,4079.99999959,3799.75757538,465.69696965,3819.33333295,733.575757502,4201.06060564,605.818181758,4431.33333289,465.69696965,4143.36363595,3284.60606028,4306.66666624,3305.21212088,4736.81818134,2996.12121182,4014.57575717,535.757575704,4353.03030259,24.7272727248,4224.75757534,4203.63636322,4738.8787874,3832.72727234,4370.03030259,185.454545436,42.0,42.0,?
2017-08-07 12:15:49.077739,4451.93939349,4026.42424202,4154.18181777,4079.99999959,3800.27272689,465.69696965,3821.39393901,733.575757502,4205.69696928,605.818181758,4432.87878744,465.69696965,4143.36363595,3284.60606028,4305.63636321,3305.21212088,4737.33333286,2996.12121182,4019.72727233,535.757575704,4355.60606017,24.7272727248,4223.21212079,4203.63636322,4738.8787874,3832.72727234,4374.66666623,185.454545436,42.0,42.0,?
2017-08-07 12:15:49.086659,4456.57575713,4026.42424202,4156.24242383,4079.99999959,3800.27272689,465.69696965,3821.90909053,733.575757502,4202.09090867,605.818181758,4429.78787834,465.69696965,4142.33333292,3284.60606028,4303.57575715,3305.21212088,4738.36363589,2996.12121182,4023.33333293,535.757575704,4354.57575714,24.7272727248,4223.7272723,4203.63636322,4735.78787831,3832.72727234,4374.15151471,185.454545436,42.0,42.0,?
2017-08-07 12:15:49.091436,4453.99999955,4026.42424202,4156.24242383,4079.99999959,3799.75757538,465.69696965,3818.81818144,733.575757502,4193.84848443,605.818181758,4422.57575713,465.69696965,4137.18181777,3284.60606028,4298.42424199,3305.21212088,4737.33333286,2996.12121182,4020.24242384,535.757575704,4351.99999956,24.7272727248,4221.66666624,4203.63636322,4733.21212074,3832.72727234,4372.60606017,185.454545436,42.0,42.0,?
2017-08-07 12:15:49.098990,4453.48484804,4026.42424202,4156.24242383,4079.99999959,3801.30302992,465.69696965,3821.39393901,733.575757502,4196.424242,605.818181758,4425.66666622,465.69696965,4138.72727231,3284.60606028,4300.99999957,3305.21212088,4737.33333286,2996.12121182,4022.3030299,535.757575704,4358.69696926,24.7272727248,4224.75757534,4203.63636322,4741.9696965,3832.72727234,4379.81818138,185.454545436,42.0,42.0,?
2017-08-07 12:15:49.110764,4456.57575713,4026.42424202,4159.84848443,4079.99999959,3805.93939356,465.69696965,3829.12121174,733.575757502,4207.75757534,605.818181758,4434.42424198,465.69696965,4144.90909049,3284.60606028,4311.30302987,3305.21212088,4745.5757571,2996.12121182,4030.54545414,535.757575704,4366.9393935,24.7272727248,4234.03030261,4203.63636322,4752.78787831,3832.72727234,4385.48484805,185.454545436,42.0,42.0,?
2017-08-07 12:15:49.115764,4458.12121168,4026.42424202,4159.84848443,4079.99999959,3806.45454507,465.69696965,3831.1818178,733.575757502,4210.84848443,605.818181758,4433.39393895,465.69696965,4142.84848443,3284.60606028,4310.27272684,3305.21212088,4751.24242377,2996.12121182,4035.18181778,535.757575704,4365.90909047,24.7272727248,4237.1212117,4203.63636322,4749.69696922,3832.72727234,4381.36363593,185.454545436,42.0,42.0,?
2017-08-07 12:15:49.122986,4457.09090865,4026.42424202,4157.27272686,4079.99999959,3801.30302992,465.69696965,3824.99999962,733.575757502,4203.1212117,605.818181758,4427.72727228,465.69696965,4138.72727231,3284.60606028,4301.51515109,3305.21212088,4745.06060559,2996.12121182,4031.57575717,535.757575704,4359.72727229,24.7272727248,4234.03030261,4203.63636322,4738.8787874,3832.72727234,4378.78787835,185.454545436,42.0,42.0,?
2017-08-07 12:15:49.131650,4453.99999955,4026.42424202,4158.30302989,4079.99999959,3798.72727235,465.69696965,3823.96969659,733.575757502,4206.21212079,605.818181758,4428.2424238,465.69696965,4145.93939352,3284.60606028,4305.63636321,3305.21212088,4741.9696965,2996.12121182,4026.93939354,535.757575704,4356.6363632,24.7272727248,4232.48484806,4203.63636322,4735.78787831,3832.72727234,4377.2424238,185.454545436,42.0,42.0,?
2017-08-07 12:15:49.140511,4452.45454501,4042.9090905,4158.30302989,4079.99999959,3800.27272689,465.69696965,3828.60606022,733.575757502,4215.99999958,605.818181758,4432.87878744,465.69696965,4157.78787837,3284.60606028,4316.45454502,3305.21212088,4751.24242377,2996.12121182,4030.54545414,535.757575704,4355.60606017,24.7272727248,4236.09090867,4203.63636322,4739.39393892,3832.72727234,4373.12121168,185.454545436,42.0,42.0,?
2017-08-07 12:15:49.148588,4448.33333289,4042.9090905,4154.69696928,4075.87878747,3799.24242386,465.69696965,3826.03030265,733.575757502,4213.93939352,605.818181758,4432.87878744,465.69696965,4158.30302989,3284.60606028,4314.39393896,3305.21212088,4758.45454498,2996.12121182,4034.66666626,535.757575704,4356.12121169,24.7272727248,4241.24242382,4203.63636322,4737.33333286,3832.72727234,4370.54545411,185.454545436,42.0,42.0,?
2017-08-07 12:15:49.154744,4445.2424238,4042.9090905,4153.15151474,4075.87878747,3795.63636326,465.69696965,3818.30302992,733.575757502,4204.66666625,605.818181758,4427.21212077,465.69696965,4147.48484807,3284.60606028,4305.12121169,3305.21212088,4755.8787874,2996.12121182,4028.9999996,535.757575704,4348.90909047,24.7272727248,4231.96969655,4203.63636322,4728.5757571,3832.72727234,4366.9393935,189.575757557,42.0,42.0,?
2017-08-07 12:15:49.162631,4446.78787834,4042.9090905,4154.18181777,4075.87878747,3793.5757572,473.939393892,3818.81818144,733.575757502,4203.63636322,605.818181758,4425.66666622,465.69696965,4141.30302989,3284.60606028,4301.51515109,3305.21212088,4750.21212074,2996.12121182,4018.6969693,535.757575704,4341.18181775,24.7272727248,4218.57575715,4203.63636322,4727.54545407,3832.72727234,4364.36363593,189.575757557,42.0,42.0,?
2017-08-07 12:15:49.170578,4449.87878743,4042.9090905,4154.18181777,4075.87878747,3795.63636326,473.939393892,3822.42424204,729.454545382,4207.24242382,605.818181758,4424.63636319,465.69696965,4141.8181814,3284.60606028,4296.87878745,3305.21212088,4745.06060559,2996.12121182,4015.09090869,535.757575704,4348.39393896,24.7272727248,4219.60606018,4203.63636322,4737.84848437,3832.72727234,4368.48484805,189.575757557,42.0,42.0,?
2017-08-07 12:15:49.177199,4451.42424198,4042.9090905,4154.18181777,4075.87878747,3797.69696932,473.939393892,3820.36363598,729.454545382,4202.60606019,593.454545395,4419.99999956,465.69696965,4139.24242383,3284.60606028,4289.15151472,3305.21212088,4738.8787874,2996.12121182,4014.06060566,535.757575704,4355.09090866,24.7272727248,4221.15151473,4203.63636322,4740.93939347,3832.72727234,4371.57575714,189.575757557,42.0,42.0,?
2017-08-07 12:15:49.189321,4449.36363592,4042.9090905,4155.2121208,4075.87878747,3795.63636326,473.939393892,3818.30302992,729.454545382,4193.84848443,593.454545395,4416.90909047,469.818181771,4135.12121171,3284.60606028,4288.63636321,3305.21212088,4737.33333286,2996.12121182,4014.06060566,535.757575704,4349.9393935,24.7272727248,4213.93939352,4203.63636322,4731.15151468,3832.72727234,4369.51515108,189.575757557,42.0,42.0,?
