Timestamp,F3 Value,F3 Quality,FC5 Value,FC5 Quality,F7 Value,F7 Quality,T7 Value,T7 Quality,P7 Value,P7 Quality,O1 Value,O1 Quality,O2 Value,O2 Quality,P8 Value,P8 Quality,T8 Value,T8 Quality,F8 Value,F8 Quality,AF4 Value,AF4 Quality,FC6 Value,FC6 Quality,F4 Value,F4 Quality,AF3 Value,AF3 Quality,X Value,Y Value,Z Value
2017-08-07 12:16:43.668695,4503.454545,0,4158.30302989,0,3955.33333294,0,3800.27272689,0,4276.78787836,0,4552.90909045,0,4249.99999958,0,4391.66666623,0,5078.36363586,0,4181.99999958,0,4434.42424198,0,4292.75757533,86.5454545368,4828.51515103,0,4462.2424238,0,42.0,42.0,?
2017-08-07 12:16:43.668791,4503.454545,0,4158.30302989,0,3955.33333294,0,3800.27272689,0,4295.3333329,0,4552.90909045,0,4249.99999958,0,4391.66666623,0,5078.36363586,0,4181.99999958,0,4434.42424198,0,4292.75757533,86.5454545368,4828.51515103,0,4462.2424238,0,42.0,42.0,?
2017-08-07 12:16:43.668850,4505.51515106,4162.42424201,4155.72727231,4071.75757535,3947.0909087,0,3801.81818144,0,4304.09090866,0,4553.93939348,0,4254.63636321,0,4397.33333289,0,5086.6060601,0,4201.57575716,0,4447.30302986,0,4308.21212078,86.5454545368,4837.27272679,0,4466.36363592,0,42.0,42.0,?
2017-08-07 12:16:43.671412,4505.51515106,4162.42424201,4155.72727231,4071.75757535,3947.0909087,0,3801.81818144,0,4304.09090866,0,4553.93939348,0,4254.63636321,0,4397.33333289,0,5086.6060601,0,4201.57575716,0,4447.30302986,0,4308.21212078,86.5454545368,4837.27272679,0,4466.36363592,0,42.0,42.0,?
2017-08-07 12:16:43.675133,4498.81818137,4162.42424201,4155.2121208,4071.75757535,3949.15151476,0,3803.8787875,0,4298.42424199,0,4560.63636318,0,4264.424242,0,4393.72727229,0,5084.54545404,0,4195.39393897,0,4440.60606016,0,4300.48484805,86.5454545368,4830.06060558,0,4461.21212077,185.454545436,42.0,42.0,?
2017-08-07 12:16:43.680200,4501.39393894,4162.42424201,4153.66666625,4071.75757535,3950.18181779,486.303030254,3804.90909053,0,4304.09090866,0,4563.21212076,0,4268.0303026,0,4389.60606017,0,5082.48484798,0,4195.39393897,0,4438.5454541,0,4303.06060563,86.5454545368,4830.06060558,0,4463.78787834,185.454545436,42.0,42.0,?
2017-08-07 12:16:43.683941,4504.99999955,4162.42424201,4144.39393898,4071.75757535,3947.60606021,486.303030254,3801.30302992,741.818181744,4312.84848442,0,4566.30302985,0,4267.51515109,0,4399.39393895,0,5088.15151464,0,4192.30302988,0,4440.09090865,0,4307.18181775,86.5454545368,4831.09090861,0,4465.33333289,185.454545436,42.0,42.0,?
2017-08-07 12:16:43.686961,4504.99999955,4162.42424201,4138.2121208,4071.75757535,3945.03030264,486.303030254,3797.1818178,741.818181744,4305.12121169,647.030302966,4566.81818136,0,4268.54545412,0,4408.66666623,0,5095.87878737,0,4189.72727231,0,4440.09090865,0,4304.60606018,86.5454545368,4833.15151467,0,4463.78787834,185.454545436,42.0,42.0,?
2017-08-07 12:16:43.689948,4506.54545409,4162.42424201,4134.09090868,4071.75757535,3942.96969658,486.303030254,3798.21212083,741.818181744,4299.96969654,647.030302966,4562.69696924,581.090909033,4269.06060563,0,4404.03030259,0,5095.36363585,0,4194.87878746,0,4440.60606016,0,4305.63636321,86.5454545368,4839.84848436,0,4463.78787834,185.454545436,42.0,42.0,?
2017-08-07 12:16:43.693267,4507.57575713,4162.42424201,4129.45454504,4071.75757535,3939.87878748,486.303030254,3796.15151477,741.818181744,4302.0303026,647.030302966,4562.69696924,581.090909033,4263.90909048,3317.57575724,4396.30302986,0,5087.63636313,0,4195.90909049,0,4448.33333289,0,4310.27272684,86.5454545368,4846.03030255,0,4464.81818137,185.454545436,42.0,42.0,?
2017-08-07 12:16:43.696220,4506.03030258,4162.42424201,4125.84848444,4071.75757535,3937.81818142,486.303030254,3791.51515114,741.818181744,4296.87878745,647.030302966,4561.66666621,581.090909033,4253.09090867,3317.57575724,4390.6363632,3424.72727238,5084.03030252,0,4193.84848443,0,4451.93939349,0,4309.75757533,86.5454545368,4846.03030255,0,4464.30302986,185.454545436,42.0,42.0,?
2017-08-07 12:16:43.700579,4506.03030258,4162.42424201,4123.27272686,4071.75757535,3938.84848445,486.303030254,3794.60606023,741.818181744,4290.18181775,647.030302966,4555.48484803,581.090909033,4248.96969654,3317.57575724,4392.69696926,3424.72727238,5094.84848434,2946.66666637,4201.06060564,0,4446.27272683,0,4310.78787836,86.5454545368,4845.51515103,0,4464.30302986,185.454545436,42.0,42.0,?
2017-08-07 12:16:43.705027,4511.18181773,4162.42424201,4117.60606019,4071.75757535,3939.87878748,486.303030254,3799.75757538,741.818181744,4292.24242381,647.030302966,4557.54545409,581.090909033,4256.18181776,3317.57575724,4401.96969653,3424.72727238,5109.78787828,2946.66666637,4203.63636322,523.393939342,4448.33333289,0,4314.39393896,86.5454545368,4850.66666618,0,4464.81818137,185.454545436,42.0,42.0,?
2017-08-07 12:16:43.708410,4516.33333288,4162.42424201,4111.42424201,4071.75757535,3939.87878748,486.303030254,3800.78787841,741.818181744,4294.81818139,647.030302966,4556.51515106,581.090909033,4257.7272723,3317.57575724,4403.51515107,3424.72727238,5110.81818131,2946.66666637,4196.93939352,523.393939342,4457.60606016,86.5454545368,4312.84848442,86.5454545368,4852.72727224,0,4466.87878743,185.454545436,42.0,42.0,?
2017-08-07 12:16:43.711484,4511.18181773,4162.42424201,4111.42424201,4071.75757535,3940.90909052,486.303030254,3802.84848447,741.818181744,4289.15151472,647.030302966,4544.1515147,581.090909033,4249.99999958,3317.57575724,4394.75757532,3424.72727238,5106.18181767,2946.66666637,4198.48484806,523.393939342,4456.57575713,86.5454545368,4311.30302987,37.0909090872,4847.06060558,0,4468.93939349,185.454545436,42.0,42.0,?
2017-08-07 12:16:43.714895,4511.18181773,4162.42424201,4110.9090905,4071.75757535,3935.75757536,486.303030254,3800.78787841,741.818181744,4289.66666624,647.030302966,4543.63636318,581.090909033,4256.69696927,3317.57575724,4393.21212077,3424.72727238,5101.54545404,2946.66666637,4203.63636322,523.393939342,4449.36363592,86.5454545368,4315.42424199,37.0909090872,4842.42424194,3890.42424204,4467.90909046,185.454545436,42.0,42.0,?
2017-08-07 12:16:43.722839,4514.78787834,4162.42424201,4105.75757535,4071.75757535,3926.99999961,486.303030254,3797.69696932,741.818181744,4306.66666624,647.030302966,4559.09090864,581.090909033,4270.09090866,3317.57575724,4399.90909047,3424.72727238,5094.84848434,2946.66666637,4199.5151511,519.272727221,4449.87878743,86.5454545368,4317.99999957,37.0909090872,4846.03030255,3890.42424204,4465.33333289,185.454545436,42.0,42.0,?
2017-08-07 12:16:43.730029,4513.75757531,4162.42424201,4100.09090868,4071.75757535,3930.60606021,486.303030254,3801.81818144,741.818181744,4316.96969654,647.030302966,4562.69696924,581.090909033,4268.0303026,3317.57575724,4404.03030259,3424.72727238,5100.51515101,2946.66666637,4196.424242,519.272727221,4455.03030258,86.5454545368,4321.09090866,37.0909090872,4851.69696921,3890.42424204,4464.81818137,185.454545436,42.0,42.0,?
2017-08-07 12:16:43.739455,4511.69696925,4162.42424201,4100.6060602,4071.75757535,3937.81818142,486.303030254,3804.39393901,741.818181744,4302.0303026,647.030302966,4548.27272682,581.090909033,4259.27272685,3317.57575724,4404.54545411,3424.72727238,5114.93939343,2946.66666637,4207.75757534,519.272727221,4459.66666622,86.5454545368,4330.87878745,37.0909090872,4852.72727224,3890.42424204,4471.51515107,185.454545436,42.0,42.0,?
2017-08-07 12:16:43.745890,4510.1515147,4162.42424201,4098.03030262,4071.75757535,3933.18181779,486.303030254,3801.81818144,741.818181744,4285.0303026,647.030302966,4533.33333288,581.090909033,4255.15151473,3317.57575724,4400.9393935,3424.72727238,5116.99999949,2946.66666637,4222.69696927,519.272727221,4461.72727228,86.5454545368,4338.60606017,37.0909090872,4850.66666618,3890.42424204,4475.12121167,185.454545436,42.0,42.0,?
2017-08-07 12:16:43.753464,4511.18181773,4162.42424201,4086.69696929,4071.75757535,3935.75757536,486.303030254,3801.81818144,741.818181744,4284.51515109,647.030302966,4525.09090864,581.090909033,4252.57575715,3317.57575724,4390.6363632,3424.72727238,5112.36363585,2946.66666637,4217.03030261,519.272727221,4460.18181774,86.5454545368,4338.09090866,37.0909090872,4851.1818177,3890.42424204,4470.48484804,185.454545436,42.0,42.0,?
2017-08-07 12:16:43.761082,4512.21212076,4162.42424201,4078.45454505,4071.75757535,3940.90909052,486.303030254,3801.81818144,741.818181744,4281.424242,647.030302966,4522.51515106,581.090909033,4247.424242,3317.57575724,4380.84848441,3424.72727238,5107.2121207,2946.66666637,4200.03030261,519.272727221,4455.03030258,86.5454545368,4328.30302987,37.0909090872,4849.63636315,3890.42424204,4466.87878743,185.454545436,42.0,42.0,?
2017-08-07 12:16:43.771539,4509.63636319,4162.42424201,4074.84848444,4071.75757535,3933.6969693,486.303030254,3795.63636326,741.818181744,4272.66666624,647.030302966,4525.09090864,581.090909033,4247.424242,3317.57575724,4382.90909047,3424.72727238,5097.93939343,2946.66666637,4190.24242382,519.272727221,4449.36363592,86.5454545368,4316.96969654,37.0909090872,4842.42424194,3890.42424204,4463.78787834,185.454545436,42.0,42.0,?
2017-08-07 12:16:43.778549,4502.93939349,4162.42424201,4062.99999959,4071.75757535,3935.24242385,486.303030254,3798.21212083,741.818181744,4271.12121169,647.030302966,4533.33333288,581.090909033,4256.69696927,3317.57575724,4372.60606017,3424.72727238,5089.18181767,2946.66666637,4225.27272685,519.272727221,4452.96969652,86.5454545368,4323.15151472,37.0909090872,4840.87878739,3890.42424204,4478.72727228,185.454545436,42.0,42.0,?
2017-08-07 12:16:43.790757,4502.93939349,4162.42424201,4062.99999959,4071.75757535,3935.24242385,486.303030254,3798.21212083,741.818181744,4271.12121169,647.030302966,4533.33333288,581.090909033,4256.69696927,3317.57575724,4372.60606017,3424.72727238,5089.18181767,2946.66666637,4225.27272685,519.272727221,4452.96969652,86.5454545368,4323.15151472,37.0909090872,4840.87878739,3890.42424204,4478.72727228,185.454545436,42.0,42.0,?
2017-08-07 12:16:43.794476,4502.93939349,4162.42424201,4062.99999959,4071.75757535,3935.24242385,486.303030254,3798.21212083,741.818181744,4271.12121169,647.030302966,4533.33333288,581.090909033,4256.69696927,3317.57575724,4372.60606017,3424.72727238,5089.18181767,2946.66666637,4225.27272685,519.272727221,4452.96969652,86.5454545368,4323.15151472,37.0909090872,4840.87878739,3890.42424204,4478.72727228,185.454545436,42.0,42.0,?
2017-08-07 12:16:43.800866,4502.93939349,4162.42424201,4062.99999959,4071.75757535,3935.24242385,486.303030254,3798.21212083,741.818181744,4271.12121169,647.030302966,4532.81818136,581.090909033,4246.90909048,3317.57575724,4372.60606017,3424.72727238,5089.18181767,2946.66666637,4225.27272685,519.272727221,4451.93939349,86.5454545368,4323.15151472,37.0909090872,4835.72727224,3890.42424204,4490.06060561,185.454545436,42.0,42.0,?
2017-08-07 12:16:43.810164,4513.24242379,4162.42424201,4071.75757535,4071.75757535,3945.54545415,486.303030254,3798.72727235,741.818181744,4259.27272685,647.030302966,4519.93939349,581.090909033,4242.27272685,3317.57575724,4366.42424199,3424.72727238,5081.96969646,2946.66666637,4239.69696927,519.272727221,4464.30302986,86.5454545368,4316.45454502,37.0909090872,4846.03030255,3890.42424204,4508.60606016,185.454545436,42.0,42.0,?
2017-08-07 12:16:43.823385,4516.8484844,4162.42424201,4076.9090905,4071.75757535,3945.03030264,486.303030254,3803.36363598,741.818181744,4250.51515109,647.030302966,4507.57575713,581.090909033,4238.66666624,3317.57575724,4366.9393935,3424.72727238,5088.66666616,2946.66666637,4268.0303026,519.272727221,4478.72727228,86.5454545368,4321.60606017,37.0909090872,4853.75757527,3890.42424204,4528.18181773,185.454545436,42.0,42.0,?
2017-08-07 12:16:43.827105,4513.75757531,4162.42424201,4070.21212081,4071.75757535,3941.93939355,486.303030254,3803.36363598,741.818181744,4239.69696927,647.030302966,4497.78787834,581.090909033,4224.24242382,3317.57575724,4354.57575714,3424.72727238,5087.63636313,2946.66666637,4283.99999957,519.272727221,4478.21212076,86.5454545368,4322.12121169,37.0909090872,4844.484848,3890.42424204,4536.42424197,185.454545436,42.0,42.0,?
2017-08-07 12:16:43.832349,4509.63636319,4162.42424201,4065.06060565,4071.75757535,3942.96969658,486.303030254,3797.1818178,741.818181744,4228.87878746,647.030302966,4489.03030258,581.090909033,4204.66666625,3317.57575724,4336.0303026,3424.72727238,5077.33333283,2946.66666637,4279.36363594,519.272727221,4467.90909046,86.5454545368,4309.75757533,37.0909090872,4831.09090861,3890.42424204,4533.8484844,185.454545436,42.0,42.0,?
2017-08-07 12:16:43.841268,4500.36363591,4162.42424201,4062.99999959,4071.75757535,3938.84848445,486.303030254,3792.03030265,741.818181744,4226.8181814,647.030302966,4486.96969652,581.090909033,4198.48484806,3317.57575724,4329.3333329,3424.72727238,5069.09090858,2946.66666637,4283.48484806,519.272727221,4458.12121168,86.5454545368,4296.36363593,37.0909090872,4817.69696922,3890.42424204,4533.8484844,185.454545436,42.0,42.0,?
2017-08-07 12:16:43.848086,4498.81818137,4162.42424201,4064.54545414,4071.75757535,3939.36363597,486.303030254,3796.15151477,741.818181744,4236.60606018,647.030302966,4495.21212076,581.090909033,4202.09090867,3317.57575724,4330.36363593,3424.72727238,5067.03030252,2946.66666637,4296.36363593,519.272727221,4458.12121168,86.5454545368,4296.36363593,37.0909090872,4814.09090861,3890.42424204,4543.63636318,185.454545436,42.0,42.0,?
2017-08-07 12:16:43.855414,4512.21212076,4162.42424201,4075.87878747,4071.75757535,3943.99999961,486.303030254,3803.8787875,741.818181744,4240.7272723,647.030302966,4500.36363591,581.090909033,4194.87878746,3317.57575724,4331.39393896,3424.72727238,5073.72727222,2946.66666637,4291.7272723,519.272727221,4465.8484844,86.5454545368,4305.12121169,37.0909090872,4827.99999952,3890.42424204,4550.33333288,185.454545436,42.0,42.0,?
2017-08-07 12:16:43.864030,4516.33333288,4162.42424201,4077.42424202,4071.75757535,3941.93939355,486.303030254,3805.42424204,741.818181744,4231.96969655,647.030302966,4490.06060561,581.090909033,4183.03030261,3317.57575724,4327.27272684,3424.72727238,5070.12121161,2946.66666637,4273.69696927,519.272727221,4467.90909046,86.5454545368,4303.57575715,37.0909090872,4834.69696921,3890.42424204,4546.21212076,185.454545436,42.0,42.0,?
2017-08-07 12:16:43.870615,4509.63636319,4162.42424201,4066.6060602,4071.75757535,3939.36363597,486.303030254,3802.33333295,741.818181744,4224.24242382,647.030302966,4478.72727228,581.090909033,4187.15151473,3317.57575724,4318.51515108,3424.72727238,5055.69696919,2946.66666637,4263.39393897,519.272727221,4463.78787834,86.5454545368,4290.18181775,37.0909090872,4823.36363588,3890.42424204,4542.60606015,185.454545436,42.0,42.0,?
2017-08-07 12:16:43.878023,4507.06060561,4162.42424201,4063.51515111,4071.75757535,3941.93939355,486.303030254,3800.78787841,741.818181744,4216.51515109,647.030302966,4480.78787834,581.090909033,4200.54545413,3317.57575724,4322.12121169,3424.72727238,5055.69696919,2946.66666637,4264.424242,519.272727221,4461.72727228,86.5454545368,4289.66666624,37.0909090872,4817.69696922,3890.42424204,4544.66666621,185.454545436,42.0,42.0,?
2017-08-07 12:16:43.887644,4508.60606016,4162.42424201,4067.63636323,4071.75757535,3944.51515112,486.303030254,3802.33333295,741.818181744,4205.18181776,647.030302966,4482.33333289,581.090909033,4207.24242382,3317.57575724,4329.84848442,3424.72727238,5061.36363586,2946.66666637,4269.57575715,519.272727221,4459.15151471,86.5454545368,4298.42424199,37.0909090872,4820.27272679,3890.42424204,4540.54545409,185.454545436,42.0,42.0,?
2017-08-07 12:16:43.893942,4505.51515106,4162.42424201,4067.63636323,4071.75757535,3946.57575718,486.303030254,3802.33333295,741.818181744,4213.93939352,647.030302966,4481.30302985,581.090909033,4203.63636322,3317.57575724,4320.06060563,3424.72727238,5048.48484798,2946.66666637,4259.78787836,519.272727221,4453.99999955,86.5454545368,4293.27272684,37.0909090872,4819.75757528,3890.42424204,4526.12121167,185.454545436,42.0,42.0,?
2017-08-07 12:16:43.901961,4500.36363591,4162.42424201,4065.06060565,4071.75757535,3944.51515112,486.303030254,3795.63636326,741.818181744,4235.06060564,647.030302966,4491.09090864,581.090909033,4201.06060564,3317.57575724,4311.81818139,3424.72727238,5039.72727222,2946.66666637,4238.66666624,519.272727221,4451.93939349,86.5454545368,4280.39393897,37.0909090872,4819.75757528,3890.42424204,4510.1515147,185.454545436,42.0,42.0,?
2017-08-07 12:16:43.913369,4495.72727228,4162.42424201,4059.39393899,4071.75757535,3938.33333294,486.303030254,3792.03030265,741.818181744,4231.45454503,647.030302966,4495.72727228,581.090909033,4194.87878746,3317.57575724,4320.06060563,3424.72727238,5041.78787828,2946.66666637,4224.24242382,519.272727221,4441.63636319,86.5454545368,4273.18181775,37.0909090872,4814.60606012,3890.42424204,4500.36363591,185.454545436,42.0,42.0,?
2017-08-07 12:16:43.920645,4500.87878743,4162.42424201,4073.3030299,4071.75757535,3946.57575718,486.303030254,3800.27272689,741.818181744,4230.424242,647.030302966,4481.81818137,581.090909033,4188.18181776,3317.57575724,4329.84848442,3424.72727238,5046.42424192,2946.66666637,4213.93939352,519.272727221,4433.90909047,86.5454545368,4281.93939351,37.0909090872,4810.484848,3890.42424204,4492.12121167,185.454545436,42.0,42.0,?
2017-08-07 12:16:43.930091,4507.06060561,4162.42424201,4074.33333293,4071.75757535,3948.12121173,486.303030254,3800.78787841,741.818181744,4230.424242,647.030302966,4481.81818137,581.090909033,4190.75757534,3317.57575724,4330.36363593,3424.72727238,5042.3030298,2946.66666637,4212.39393897,519.272727221,4447.81818137,86.5454545368,4288.12121169,37.0909090872,4824.90909043,3890.42424204,4492.12121167,185.454545436,42.0,42.0,?
2017-08-07 12:16:43.945997,4503.454545,4162.42424201,4066.09090868,4071.75757535,3948.12121173,486.303030254,3799.75757538,741.818181744,4211.87878746,647.030302966,4464.81818137,581.090909033,4177.36363595,3317.57575724,4321.09090866,3424.72727238,5028.39393889,2946.66666637,4213.93939352,519.272727221,4447.30302986,86.5454545368,4276.27272685,37.0909090872,4831.09090861,3890.42424204,4493.66666622,185.454545436,42.0,42.0,?
2017-08-07 12:16:43.947938,4503.454545,4162.42424201,4066.09090868,4071.75757535,3948.12121173,486.303030254,3799.75757538,741.818181744,4211.87878746,647.030302966,4464.81818137,581.090909033,4177.36363595,3317.57575724,4321.09090866,3424.72727238,5028.39393889,2946.66666637,4213.93939352,519.272727221,4447.30302986,86.5454545368,4276.27272685,37.0909090872,4831.09090861,3890.42424204,4493.66666622,185.454545436,42.0,42.0,?
2017-08-07 12:16:43.953482,4503.454545,4162.42424201,4066.09090868,4071.75757535,3948.12121173,486.303030254,3794.60606023,741.818181744,4214.45454503,647.030302966,4461.21212077,581.090909033,4171.69696928,3317.57575724,4320.57575714,3424.72727238,5029.93939344,2946.66666637,4211.87878746,519.272727221,4445.2424238,86.5454545368,4275.75757533,37.0909090872,4830.57575709,3890.42424204,4485.42424198,185.454545436,42.0,42.0,?
2017-08-07 12:16:43.956870,4509.12121167,4162.42424201,4072.27272687,4071.75757535,3947.60606021,486.303030254,3796.15151477,741.818181744,4239.69696927,647.030302966,4476.66666622,581.090909033,4190.24242382,3317.57575724,4338.09090866,3424.72727238,5044.36363586,2946.66666637,4207.75757534,519.272727221,4450.39393895,86.5454545368,4296.36363593,37.0909090872,4830.06060558,3890.42424204,4481.30302985,185.454545436,42.0,42.0,?
2017-08-07 12:16:43.964208,4500.87878743,4162.42424201,4072.27272687,4071.75757535,3940.393939,486.303030254,3800.27272689,741.818181744,4254.1212117,647.030302966,4497.27272682,581.090909033,4214.45454503,3317.57575724,4351.48484805,3424.72727238,5043.33333283,2946.66666637,4204.66666625,519.272727221,4442.66666622,86.5454545368,4294.81818139,37.0909090872,4823.36363588,3890.42424204,4472.5454541,185.454545436,42.0,42.0,?
2017-08-07 12:16:43.973804,4490.06060561,4162.42424201,4068.15151474,4071.75757535,3933.18181779,486.303030254,3796.15151477,741.818181744,4250.51515109,647.030302966,4512.21212076,581.090909033,4224.75757534,3317.57575724,4350.96969653,3424.72727238,5034.06060556,2946.66666637,4197.45454503,519.272727221,4421.5454541,86.5454545368,4270.09090866,37.0909090872,4807.39393891,3890.42424204,4455.03030258,185.454545436,42.0,42.0,?
2017-08-07 12:16:43.980565,4495.21212076,4162.42424201,4067.12121171,4071.75757535,3935.75757536,486.303030254,3791.51515114,741.818181744,4256.69696927,647.030302966,4516.8484844,581.090909033,4224.24242382,3317.57575724,4353.54545411,3424.72727238,5034.06060556,2946.66666637,4195.39393897,519.272727221,4411.75757532,86.5454545368,4269.06060563,37.0909090872,4804.30302982,3890.42424204,4449.87878743,185.454545436,42.0,42.0,?
2017-08-07 12:16:43.988023,4496.75757531,4162.42424201,4068.66666626,4071.75757535,3938.84848445,486.303030254,3794.09090871,741.818181744,4270.09090866,647.030302966,4514.78787834,581.090909033,4221.15151473,3317.57575724,4357.66666623,3424.72727238,5035.09090859,2946.66666637,4196.424242,519.272727221,4419.48484804,86.5454545368,4286.06060563,37.0909090872,4811.51515103,3890.42424204,4452.45454501,185.454545436,42.0,42.0,?
2017-08-07 12:16:44.000395,4492.12121167,4162.42424201,4069.18181777,4071.75757535,3936.78787839,486.303030254,3795.12121174,741.818181744,4264.424242,647.030302966,4510.1515147,581.090909033,4221.66666624,3317.57575724,4359.21212078,3424.72727238,5035.09090859,2946.66666637,4192.30302988,519.272727221,4425.66666622,86.5454545368,4288.63636321,37.0909090872,4814.60606012,3890.42424204,4449.36363592,185.454545436,42.0,42.0,?
2017-08-07 12:16:44.003496,4501.39393894,4162.42424201,4068.15151474,4071.75757535,3941.42424203,486.303030254,3798.72727235,741.818181744,4251.03030261,647.030302966,4500.87878743,581.090909033,4220.1212117,3317.57575724,4363.84848441,3424.72727238,5038.69696919,2946.66666637,4196.93939352,519.272727221,4429.78787834,86.5454545368,4291.7272723,37.0909090872,4820.27272679,3890.42424204,4455.5454541,185.454545436,42.0,42.0,?
2017-08-07 12:16:44.011141,4511.69696925,4162.42424201,4070.21212081,4071.75757535,3947.60606021,486.303030254,3805.93939356,741.818181744,4248.45454503,647.030302966,4492.12121167,581.090909033,4210.84848443,3317.57575724,4366.42424199,3424.72727238,5039.21212071,2946.66666637,4209.8181814,519.272727221,4438.03030259,86.5454545368,4302.54545412,37.0909090872,4831.60606012,3890.42424204,4462.75757531,185.454545436,42.0,42.0,?
2017-08-07 12:16:44.019161,4505.51515106,4162.42424201,4072.78787838,4071.75757535,3941.42424203,486.303030254,3804.39393901,741.818181744,4256.18181776,647.030302966,4494.69696925,581.090909033,4207.75757534,3317.57575724,4363.3333329,3424.72727238,5033.54545404,2946.66666637,4203.1212117,519.272727221,4434.42424198,86.5454545368,4298.93939351,37.0909090872,4830.06060558,3890.42424204,4453.48484804,185.454545436,42.0,42.0,?
2017-08-07 12:16:44.029520,4494.69696925,4162.42424201,4068.15151474,4071.75757535,3933.6969693,486.303030254,3795.12121174,741.818181744,4266.48484806,647.030302966,4511.18181773,581.090909033,4220.63636321,3317.57575724,4363.3333329,3424.72727238,5035.09090859,2946.66666637,4185.09090867,519.272727221,4420.51515107,86.5454545368,4288.63636321,37.0909090872,4816.15151467,3890.42424204,4438.5454541,185.454545436,42.0,42.0,?
2017-08-07 12:16:44.035896,4494.18181773,4162.42424201,4061.96969656,4071.75757535,3929.57575718,486.303030254,3786.8787875,741.818181744,4269.06060563,647.030302966,4527.1515147,581.090909033,4238.15151473,3317.57575724,4370.54545411,3424.72727238,5037.66666616,2946.66666637,4176.33333292,519.272727221,4409.69696926,86.5454545368,4282.45454503,37.0909090872,4809.45454497,3890.42424204,4430.30302986,185.454545436,42.0,42.0,?
2017-08-07 12:16:44.042960,4495.21212076,4162.42424201,4060.93939353,4071.75757535,3926.99999961,486.303030254,3783.78787841,741.818181744,4264.93939351,647.030302966,4531.27272682,581.090909033,4248.45454503,3317.57575724,4372.60606017,3424.72727238,5030.45454495,2946.66666637,4168.09090867,519.272727221,4405.06060562,86.5454545368,4280.39393897,37.0909090872,4808.42424194,3890.42424204,4423.09090865,185.454545436,42.0,42.0,?
2017-08-07 12:16:44.053645,4496.24242379,4162.42424201,4062.99999959,4071.75757535,3928.54545415,486.303030254,3787.39393902,741.818181744,4270.09090866,647.030302966,4527.1515147,581.090909033,4248.45454503,3317.57575724,4371.06060562,3424.72727238,5023.75757526,2946.66666637,4164.48484807,519.272727221,4410.72727229,86.5454545368,4286.57575715,37.0909090872,4811.51515103,3890.42424204,4421.5454541,185.454545436,42.0,42.0,?
2017-08-07 12:16:44.057958,4498.81818137,4162.42424201,4060.42424202,4071.75757535,3929.57575718,486.303030254,3790.48484811,741.818181744,4272.66666624,647.030302966,4520.96969652,581.090909033,4234.03030261,3317.57575724,4368.48484805,3424.72727238,5021.69696919,2946.66666637,4168.09090867,519.272727221,4416.39393895,86.5454545368,4290.18181775,37.0909090872,4817.1818177,3890.42424204,4427.72727228,185.454545436,42.0,42.0,?
2017-08-07 12:16:44.066477,4497.27272682,4162.42424201,4052.18181778,4071.75757535,3928.03030264,486.303030254,3787.90909053,741.818181744,4257.7272723,647.030302966,4508.09090864,581.090909033,4217.54545412,3317.57575724,4358.18181775,3424.72727238,5017.06060556,2946.66666637,4167.57575716,519.272727221,4413.81818138,86.5454545368,4285.54545412,37.0909090872,4818.21212073,3890.42424204,4430.81818138,185.454545436,42.0,42.0,?
2017-08-07 12:16:44.078951,4490.06060561,4162.42424201,4047.03030263,4071.75757535,3928.54545415,486.303030254,3786.36363599,741.818181744,4248.45454503,647.030302966,4493.66666622,581.090909033,4217.03030261,3317.57575724,4350.45454502,3424.72727238,5009.84848435,2946.66666637,4165.5151511,519.272727221,4408.66666623,86.5454545368,4283.48484806,37.0909090872,4809.96969649,3890.42424204,4425.15151471,185.454545436,42.0,42.0,?
2017-08-07 12:16:44.082644,4490.06060561,4162.42424201,4049.09090869,4071.75757535,3917.72727234,486.303030254,3789.96969659,741.818181744,4259.78787836,647.030302966,4503.454545,581.090909033,4213.93939352,3317.57575724,4350.45454502,3424.72727238,4997.48484799,2946.66666637,4150.57575716,519.272727221,4402.48484804,86.5454545368,4273.69696927,37.0909090872,4805.33333285,3890.42424204,4415.36363592,185.454545436,42.0,42.0,?
2017-08-07 12:16:44.091214,4490.06060561,4162.42424201,4049.09090869,4071.75757535,3917.72727234,486.303030254,3789.96969659,741.818181744,4259.78787836,647.030302966,4503.454545,581.090909033,4213.93939352,3317.57575724,4350.45454502,3424.72727238,4997.48484799,2946.66666637,4150.57575716,519.272727221,4402.48484804,86.5454545368,4273.69696927,37.0909090872,4805.33333285,3890.42424204,4415.36363592,185.454545436,42.0,42.0,?
2017-08-07 12:16:44.097041,4484.90909046,4162.42424201,4045.9999996,4071.75757535,3917.72727234,486.303030254,3787.90909053,741.818181744,4255.66666624,647.030302966,4511.18181773,581.090909033,4217.54545412,3317.57575724,4351.99999956,3424.72727238,4996.45454495,2946.66666637,4143.87878746,519.272727221,4400.42424198,86.5454545368,4270.09090866,37.0909090872,4805.84848437,3890.42424204,4414.84848441,185.454545436,42.0,42.0,?
2017-08-07 12:16:44.104974,4485.93939349,4162.42424201,4048.57575717,4071.75757535,3917.21212082,486.303030254,3786.36363599,741.818181744,4251.54545412,647.030302966,4515.81818137,581.090909033,4232.48484806,3317.57575724,4357.15151472,3424.72727238,5001.09090859,2946.66666637,4149.03030262,519.272727221,4397.84848441,86.5454545368,4279.36363594,37.0909090872,4800.69696922,3890.42424204,4411.75757532,185.454545436,42.0,42.0,?
2017-08-07 12:16:44.115085,4492.12121167,4162.42424201,4055.27272687,4071.75757535,3914.12121173,486.303030254,3788.93939356,741.818181744,4260.81818139,647.030302966,4524.57575712,581.090909033,4240.21212079,3317.57575724,4365.39393896,3424.72727238,5004.18181768,2946.66666637,4151.60606019,519.272727221,4399.39393895,86.5454545368,4285.0303026,37.0909090872,4803.27272679,3890.42424204,4415.36363592,185.454545436,42.0,42.0,?
2017-08-07 12:16:44.121073,4493.1515147,4154.18181777,4054.24242384,4071.75757535,3921.84848446,486.303030254,3792.54545417,741.818181744,4277.81818139,647.030302966,4533.33333288,581.090909033,4239.69696927,3317.57575724,4368.48484805,3424.72727238,5006.24242374,2946.66666637,4150.06060565,519.272727221,4404.54545411,86.5454545368,4282.96969654,37.0909090872,4805.84848437,3890.42424204,4419.99999956,185.454545436,42.0,42.0,?
2017-08-07 12:16:44.129042,4491.60606016,4154.18181777,4053.72727232,4071.75757535,3928.03030264,486.303030254,3792.03030265,741.818181744,4273.69696927,647.030302966,4525.09090864,581.090909033,4233.51515109,3317.57575724,4360.24242381,3424.72727238,5003.15151465,2946.66666637,4149.54545413,519.272727221,4401.96969653,86.5454545368,4283.48484806,37.0909090872,4799.15151467,3890.42424204,4416.39393895,185.454545436,42.0,42.0,?
2017-08-07 12:16:44.136411,4494.69696925,4154.18181777,4061.96969656,4071.75757535,3922.87878749,486.303030254,3789.45454508,741.818181744,4255.66666624,647.030302966,4512.21212076,581.090909033,4223.7272723,3317.57575724,4350.45454502,3424.72727238,4996.45454495,2946.66666637,4150.57575716,519.272727221,4399.90909047,86.5454545368,4282.96969654,37.0909090872,4799.66666619,3890.42424204,4412.78787835,193.696969678,42.0,42.0,?
2017-08-07 12:16:44.144982,4497.78787834,4154.18181777,4063.51515111,4071.75757535,3922.87878749,478.060606013,3792.03030265,741.818181744,4260.81818139,647.030302966,4516.8484844,581.090909033,4227.84848443,3317.57575724,4355.60606017,3424.72727238,5002.12121162,2946.66666637,4153.15151474,519.272727221,4407.6363632,86.5454545368,4283.48484806,37.0909090872,4810.484848,3890.42424204,4421.5454541,193.696969678,42.0,42.0,?
2017-08-07 12:16:44.152148,4496.75757531,4154.18181777,4053.21212081,4071.75757535,3927.51515112,478.060606013,3795.63636326,750.060605986,4275.24242381,647.030302966,4524.06060561,581.090909033,4237.63636321,3317.57575724,4360.75757532,3424.72727238,5009.33333283,2946.66666637,4150.06060565,519.272727221,4408.66666623,86.5454545368,4286.06060563,37.0909090872,4810.484848,3890.42424204,4427.72727228,193.696969678,42.0,42.0,?
2017-08-07 12:16:44.161813,4496.75757531,4154.18181777,4054.24242384,4071.75757535,3924.93939355,478.060606013,3793.06060568,750.060605986,4265.96969654,655.272727207,4514.27272682,581.090909033,4227.33333291,3317.57575724,4349.9393935,3424.72727238,4997.9999995,2946.66666637,4139.75757534,519.272727221,4400.42424198,86.5454545368,4281.93939351,37.0909090872,4798.63636316,3890.42424204,4424.63636319,193.696969678,42.0,42.0,?
2017-08-07 12:16:44.168951,4495.72727228,4154.18181777,4065.06060565,4071.75757535,3926.48484809,478.060606013,3791.51515114,750.060605986,4254.63636321,655.272727207,4504.99999955,581.090909033,4220.63636321,3317.57575724,4346.3333329,3424.72727238,4988.72727223,2946.66666637,4137.18181777,519.272727221,4396.30302986,86.5454545368,4276.78787836,37.0909090872,4796.5757571,3890.42424204,4421.03030259,193.696969678,42.0,42.0,?
2017-08-07 12:16:44.174944,4496.75757531,4154.18181777,4061.45454505,4071.75757535,3930.0909087,478.060606013,3792.54545417,750.060605986,4259.78787836,655.272727207,4520.96969652,581.090909033,4236.60606018,3313.45454512,4358.69696926,3424.72727238,4999.03030253,2946.66666637,4143.87878746,519.272727221,4399.39393895,86.5454545368,4280.90909048,37.0909090872,4804.81818134,3890.42424204,4422.06060562,193.696969678,42.0,42.0,?
2017-08-07 12:16:44.184760,4498.30302985,4154.18181777,4048.57575717,4071.75757535,3922.36363597,478.060606013,3793.06060568,750.060605986,4268.0303026,655.272727207,4532.30302985,581.090909033,4243.81818139,3313.45454512,4365.90909047,3420.60606026,5005.72727223,2946.66666637,4147.48484807,519.272727221,4399.39393895,86.5454545368,4280.90909048,37.0909090872,4802.75757528,3890.42424204,4418.96969653,193.696969678,42.0,42.0,?
2017-08-07 12:16:44.191454,4490.57575713,4154.18181777,4047.03030263,4071.75757535,3916.18181779,478.060606013,3793.5757572,750.060605986,4269.06060563,655.272727207,4518.90909046,581.090909033,4235.57575715,3313.45454512,4356.6363632,3420.60606026,4995.93939344,2934.30303001,4144.39393898,519.272727221,4394.2424238,86.5454545368,4271.63636321,37.0909090872,4791.42424195,3890.42424204,4411.75757532,193.696969678,42.0,42.0,?
2017-08-07 12:16:44.200995,4490.06060561,4154.18181777,4043.42424202,4071.75757535,3918.75757537,478.060606013,3794.09090871,750.060605986,4264.424242,655.272727207,4514.27272682,581.090909033,4229.39393897,3313.45454512,4357.15151472,3420.60606026,4993.87878738,2934.30303001,4129.96969656,515.1515151,4392.18181774,94.7878787784,4263.90909048,37.0909090872,4795.54545407,3890.42424204,4412.78787835,193.696969678,42.0,42.0,?
2017-08-07 12:16:44.211751,4490.06060561,4154.18181777,4043.42424202,4071.75757535,3918.75757537,478.060606013,3794.09090871,750.060605986,4264.424242,655.272727207,4514.27272682,581.090909033,4229.39393897,3313.45454512,4357.15151472,3420.60606026,4993.87878738,2934.30303001,4129.96969656,515.1515151,4392.18181774,94.7878787784,4263.90909048,37.0909090872,4795.54545407,3890.42424204,4412.78787835,193.696969678,42.0,42.0,?
2017-08-07 12:16:44.217103,4487.48484804,4154.18181777,4023.33333293,4071.75757535,3911.54545415,478.060606013,3796.15151477,750.060605986,4251.54545412,655.272727207,4506.03030258,581.090909033,4218.57575715,3313.45454512,4353.03030259,3420.60606026,4988.21212071,2934.30303001,4124.30302989,515.1515151,4382.90909047,94.7878787784,4254.63636321,45.3333333288,4782.66666619,3890.42424204,4400.9393935,193.696969678,42.0,42.0,?
2017-08-07 12:16:44.225003,4473.06060561,4154.18181777,4007.87878748,4071.75757535,3907.93939355,478.060606013,3801.81818144,750.060605986,4245.87878745,655.272727207,4493.66666622,581.090909033,4214.45454503,3313.45454512,4338.60606017,3420.60606026,4972.24242375,2934.30303001,4120.69696928,515.1515151,4371.57575714,94.7878787784,4240.21212079,45.3333333288,4767.72727225,3902.7878784,4389.60606017,193.696969678,42.0,42.0,?
2017-08-07 12:16:44.230811,4473.06060561,4154.18181777,4007.87878748,4071.75757535,3908.96969658,478.060606013,3799.75757538,750.060605986,4253.09090867,655.272727207,4499.33333288,581.090909033,4218.57575715,3313.45454512,4335.51515108,3420.60606026,4974.30302981,2934.30303001,4120.69696928,519.272727221,4371.06060562,94.7878787784,4234.54545412,45.3333333288,4767.72727225,3902.7878784,4390.12121168,193.696969678,42.0,42.0,?
2017-08-07 12:16:44.238442,4480.27272682,4154.18181777,4007.36363596,4071.75757535,3907.93939355,478.060606013,3792.03030265,750.060605986,4253.09090867,655.272727207,4502.93939349,581.090909033,4220.63636321,3313.45454512,4342.21212078,3420.60606026,4983.57575708,2934.30303001,4121.72727232,519.272727221,4372.09090865,86.5454545368,4244.33333291,45.3333333288,4770.30302983,3902.7878784,4387.03030259,193.696969678,42.0,42.0,?
2017-08-07 12:16:44.247522,4477.69696925,4154.18181777,3995.51515112,4071.75757535,3902.7878784,478.060606013,3793.5757572,750.060605986,4245.87878745,655.272727207,4495.72727228,581.090909033,4214.96969655,3313.45454512,4339.6363632,3420.60606026,4970.18181768,2934.30303001,4120.69696928,519.272727221,4368.99999956,86.5454545368,4251.54545412,45.3333333288,4769.2727268,3902.7878784,4380.84848441,193.696969678,42.0,42.0,?
2017-08-07 12:16:44.254960,4470.99999955,4154.18181777,3989.84848445,4071.75757535,3896.60606022,478.060606013,3801.81818144,750.060605986,4239.18181776,655.272727207,4493.1515147,581.090909033,4209.30302988,3313.45454512,4332.42424199,3420.60606026,4961.42424193,2934.30303001,4121.2121208,519.272727221,4370.03030259,86.5454545368,4245.36363594,45.3333333288,4771.84848437,3902.7878784,4385.48484805,193.696969678,42.0,42.0,?
2017-08-07 12:16:44.261031,4470.48484804,4154.18181777,3990.36363596,4071.75757535,3894.54545416,478.060606013,3802.33333295,750.060605986,4228.36363594,655.272727207,4487.48484804,581.090909033,4205.18181776,3313.45454512,4331.90909048,3420.60606026,4969.66666617,2934.30303001,4121.72727232,519.272727221,4369.51515108,86.5454545368,4240.7272723,45.3333333288,4771.84848437,3902.7878784,4388.06060562,193.696969678,42.0,42.0,?
2017-08-07 12:16:44.270982,4470.99999955,4154.18181777,3985.72727233,4071.75757535,3895.57575719,478.060606013,3799.75757538,750.060605986,4225.78787837,655.272727207,4483.87878743,581.090909033,4203.1212117,3313.45454512,4335.51515108,3420.60606026,4972.24242375,2934.30303001,4118.63636322,519.272727221,4364.87878744,86.5454545368,4249.48484806,45.3333333288,4763.09090861,3902.7878784,4381.36363593,193.696969678,42.0,42.0,?
2017-08-07 12:16:44.277748,4469.45454501,4154.18181777,3988.3030299,4071.75757535,3896.0909087,478.060606013,3801.81818144,750.060605986,4232.99999958,655.272727207,4491.60606016,581.090909033,4208.27272685,3313.45454512,4339.12121169,3420.60606026,4968.63636314,2934.30303001,4117.60606019,519.272727221,4365.39393896,86.5454545368,4249.99999958,45.3333333288,4760.51515104,3902.7878784,4379.81818138,193.696969678,42.0,42.0,?
2017-08-07 12:16:44.284946,4470.99999955,4154.18181777,3991.90909051,4071.75757535,3898.66666628,478.060606013,3806.96969659,750.060605986,4237.1212117,655.272727207,4497.27272682,581.090909033,4213.93939352,3313.45454512,4338.60606017,3420.60606026,4962.45454496,2934.30303001,4121.72727232,519.272727221,4364.87878744,86.5454545368,4233.51515109,45.3333333288,4766.69696922,3902.7878784,4385.48484805,193.696969678,42.0,42.0,?
2017-08-07 12:16:44.292983,4471.51515107,4154.18181777,3981.60606021,4071.75757535,3899.69696931,478.060606013,3809.03030265,750.060605986,4244.33333291,655.272727207,4495.21212076,581.090909033,4209.30302988,3313.45454512,4332.42424199,3420.60606026,4945.96969648,2934.30303001,4116.57575716,519.272727221,4357.15151472,86.5454545368,4218.06060564,45.3333333288,4763.60606013,3902.7878784,4385.99999956,193.696969678,42.0,42.0,?
2017-08-07 12:16:44.303216,4467.90909046,4154.18181777,3974.393939,4071.75757535,3896.60606022,478.060606013,3804.90909053,750.060605986,4249.48484806,655.272727207,4490.06060561,581.090909033,4202.09090867,3313.45454512,4328.30302987,3420.60606026,4935.66666617,2934.30303001,4105.24242383,519.272727221,4350.96969653,86.5454545368,4215.99999958,45.3333333288,4753.30302983,3902.7878784,4380.3333329,193.696969678,42.0,42.0,?
2017-08-07 12:16:44.313238,4470.48484804,4154.18181777,3982.12121172,4071.75757535,3895.57575719,478.060606013,3799.75757538,750.060605986,4238.66666624,655.272727207,4488.51515107,581.090909033,4203.1212117,3313.45454512,4325.72727229,3420.60606026,4936.6969692,2934.30303001,4107.81818141,519.272727221,4355.09090866,86.5454545368,4219.60606018,45.3333333288,4757.93939346,3902.7878784,4382.90909047,193.696969678,42.0,42.0,?
2017-08-07 12:16:44.318029,4480.27272682,4154.18181777,3990.36363596,4071.75757535,3896.60606022,478.060606013,3806.45454507,750.060605986,4232.99999958,655.272727207,4491.60606016,581.090909033,4205.69696928,3313.45454512,4323.66666623,3420.60606026,4938.24242375,2934.30303001,4121.2121208,519.272727221,4362.30302987,86.5454545368,4224.24242382,45.3333333288,4769.2727268,3902.7878784,4390.6363632,193.696969678,42.0,42.0,?
2017-08-07 12:16:44.329231,4482.33333289,4154.18181777,3989.84848445,4071.75757535,3899.69696931,478.060606013,3814.69696932,750.060605986,4247.424242,655.272727207,4496.24242379,581.090909033,4203.1212117,3313.45454512,4328.81818139,3420.60606026,4939.27272678,2934.30303001,4123.78787838,519.272727221,4365.90909047,86.5454545368,4230.93939352,45.3333333288,4769.78787831,3902.7878784,4393.21212077,193.696969678,42.0,42.0,?
2017-08-07 12:16:44.338465,4480.27272682,4154.18181777,3988.81818142,4071.75757535,3900.72727234,478.060606013,3814.1818178,750.060605986,4250.51515109,655.272727207,4496.75757531,581.090909033,4204.15151473,3313.45454512,4338.09090866,3420.60606026,4937.72727223,2934.30303001,4117.60606019,519.272727221,4367.45454502,86.5454545368,4235.06060564,45.3333333288,4771.33333286,3902.7878784,4393.21212077,193.696969678,42.0,42.0,?
2017-08-07 12:16:44.342842,4479.75757531,4154.18181777,3991.90909051,4071.75757535,3899.18181779,478.060606013,3810.57575719,750.060605986,4236.09090867,655.272727207,4494.69696925,581.090909033,4206.21212079,3313.45454512,4338.60606017,3420.60606026,4932.57575708,2934.30303001,4118.12121171,519.272727221,4368.99999956,86.5454545368,4240.21212079,45.3333333288,4775.45454498,3902.7878784,4394.2424238,193.696969678,42.0,42.0,?
2017-08-07 12:16:44.347292,4475.12121167,4154.18181777,3991.39393899,4071.75757535,3895.06060567,478.060606013,3808.51515113,750.060605986,4232.48484806,655.272727207,4494.69696925,581.090909033,4197.96969655,3313.45454512,4329.3333329,3420.60606026,4932.57575708,2934.30303001,4120.69696928,519.272727221,4363.3333329,86.5454545368,4244.33333291,45.3333333288,4768.24242377,3902.7878784,4389.09090865,193.696969678,42.0,42.0,?
2017-08-07 12:16:44.355002,4476.66666622,4154.18181777,3988.3030299,4071.75757535,3898.66666628,478.060606013,3807.99999962,750.060605986,4237.63636321,655.272727207,4490.06060561,581.090909033,4191.27272685,3313.45454512,4326.75757532,3420.60606026,4936.6969692,2934.30303001,4125.33333292,519.272727221,4359.21212078,86.5454545368,4244.84848442,45.3333333288,4759.48484801,3902.7878784,4388.06060562,193.696969678,42.0,42.0,?
2017-08-07 12:16:44.363086,4481.81818137,4154.18181777,3996.03030263,4071.75757535,3905.87878749,478.060606013,3813.66666629,750.060605986,4239.69696927,655.272727207,4487.48484804,581.090909033,4194.36363594,3313.45454512,4330.87878745,3420.60606026,4940.30302981,2934.30303001,4133.06060565,519.272727221,4373.12121168,86.5454545368,4250.51515109,45.3333333288,4768.24242377,3902.7878784,4401.45454501,193.696969678,42.0,42.0,?
2017-08-07 12:16:44.371709,4480.27272682,4154.18181777,3999.63636324,4071.75757535,3903.81818143,478.060606013,3817.78787841,750.060605986,4238.66666624,655.272727207,4490.06060561,581.090909033,4192.8181814,3313.45454512,4326.24242381,3420.60606026,4935.15151466,2934.30303001,4132.54545413,519.272727221,4383.9393935,86.5454545368,4254.63636321,45.3333333288,4775.45454498,3902.7878784,4407.12121168,193.696969678,42.0,42.0,?
2017-08-07 12:16:44.379443,4479.24242379,4154.18181777,3996.54545415,4071.75757535,3901.24242385,478.060606013,3814.69696932,750.060605986,4234.54545412,655.272727207,4490.57575713,581.090909033,4191.27272685,3313.45454512,4320.57575714,3420.60606026,4924.33333284,2934.30303001,4131.5151511,519.272727221,4376.21212077,86.5454545368,4255.15151473,45.3333333288,4774.42424195,3902.7878784,4399.90909047,193.696969678,42.0,42.0,?
2017-08-07 12:16:44.389029,4483.36363592,4154.18181777,3999.12121172,4071.75757535,3902.27272688,478.060606013,3808.51515113,750.060605986,4233.51515109,655.272727207,4491.60606016,581.090909033,4203.1212117,3313.45454512,4330.87878745,3420.60606026,4923.81818133,2934.30303001,4141.30302989,519.272727221,4380.3333329,86.5454545368,4266.48484806,45.3333333288,4778.54545407,3902.7878784,4400.42424198,193.696969678,42.0,42.0,?
2017-08-07 12:16:44.393946,4478.21212076,4154.18181777,3996.54545415,4071.75757535,3899.69696931,478.060606013,3802.84848447,750.060605986,4239.18181776,655.272727207,4496.75757531,581.090909033,4210.33333291,3313.45454512,4342.21212078,3420.60606026,4931.03030254,2934.30303001,4142.33333292,519.272727221,4384.96969653,86.5454545368,4271.63636321,45.3333333288,4778.03030255,3902.7878784,4400.9393935,193.696969678,42.0,42.0,?
2017-08-07 12:16:44.403410,4464.81818137,4154.18181777,3988.81818142,4071.75757535,3895.06060567,478.060606013,3799.24242386,750.060605986,4238.66666624,655.272727207,4493.66666622,581.090909033,4203.63636322,3313.45454512,4334.48484805,3420.60606026,4926.90909042,2934.30303001,4129.45454504,519.272727221,4365.90909047,86.5454545368,4254.1212117,45.3333333288,4762.06060558,3902.7878784,4392.18181774,193.696969678,42.0,42.0,?
2017-08-07 12:16:44.410779,4467.90909046,4154.18181777,3995.51515112,4071.75757535,3896.0909087,478.060606013,3799.24242386,750.060605986,4233.51515109,655.272727207,4484.90909046,581.090909033,4200.54545413,3313.45454512,4324.69696926,3420.60606026,4909.3939389,2934.30303001,4125.84848444,519.272727221,4359.72727229,86.5454545368,4246.39393897,45.3333333288,4758.96969649,3902.7878784,4389.60606017,193.696969678,42.0,42.0,?
2017-08-07 12:16:44.418732,4483.36363592,4154.18181777,4006.84848445,4071.75757535,3897.63636325,478.060606013,3803.36363598,750.060605986,4236.60606018,655.272727207,4489.03030258,581.090909033,4205.18181776,3313.45454512,4324.69696926,3420.60606026,4906.30302981,2934.30303001,4134.60606019,519.272727221,4378.27272683,86.5454545368,4259.27272685,45.3333333288,4773.90909043,3902.7878784,4398.36363592,193.696969678,42.0,42.0,?
2017-08-07 12:16:44.426244,4484.39393895,4154.18181777,4010.45454505,4071.75757535,3899.69696931,478.060606013,3808.51515113,750.060605986,4236.60606018,655.272727207,4494.18181773,581.090909033,4199.5151511,3313.45454512,4324.69696926,3420.60606026,4919.18181769,2934.30303001,4136.15151474,519.272727221,4382.39393896,86.5454545368,4267.51515109,45.3333333288,4775.45454498,3902.7878784,4402.48484804,193.696969678,42.0,42.0,?
2017-08-07 12:16:44.435524,4476.66666622,4154.18181777,4015.09090869,4071.75757535,3899.18181779,478.060606013,3805.93939356,750.060605986,4228.36363594,655.272727207,4491.09090864,581.090909033,4187.66666625,3313.45454512,4321.60606017,3420.60606026,4914.03030254,2934.30303001,4136.15151474,519.272727221,4375.69696926,86.5454545368,4266.48484806,45.3333333288,4768.75757528,3902.7878784,4402.99999956,193.696969678,42.0,42.0,?
2017-08-07 12:16:44.440987,4479.24242379,4154.18181777,4016.63636323,4071.75757535,3895.57575719,478.060606013,3801.30302992,750.060605986,4228.87878746,655.272727207,4491.09090864,581.090909033,4190.75757534,3313.45454512,4325.72727229,3420.60606026,4899.0909086,2934.30303001,4142.33333292,519.272727221,4381.36363593,86.5454545368,4264.424242,45.3333333288,4773.90909043,3902.7878784,4405.57575714,193.696969678,42.0,42.0,?
2017-08-07 12:16:44.449100,4486.96969652,4154.18181777,4018.18181778,4071.75757535,3897.12121173,478.060606013,3804.39393901,750.060605986,4235.06060564,655.272727207,4495.21212076,581.090909033,4204.15151473,3313.45454512,4335.51515108,3420.60606026,4902.18181769,2934.30303001,4143.87878746,519.272727221,4385.99999956,86.5454545368,4268.0303026,45.3333333288,4780.09090861,3902.7878784,4405.57575714,193.696969678,42.0,42.0,?
2017-08-07 12:16:44.460454,4487.48484804,4154.18181777,4023.84848445,4071.75757535,3898.66666628,478.060606013,3807.4848481,750.060605986,4238.15151473,655.272727207,4495.72727228,581.090909033,4204.15151473,3313.45454512,4334.48484805,3420.60606026,4904.75757527,2934.30303001,4142.33333292,519.272727221,4386.51515108,86.5454545368,4273.69696927,45.3333333288,4782.66666619,3902.7878784,4402.48484804,193.696969678,42.0,42.0,?
2017-08-07 12:16:44.466364,4479.75757531,4154.18181777,4020.24242384,4071.75757535,3896.0909087,478.060606013,3802.84848447,750.060605986,4239.69696927,655.272727207,4486.96969652,581.090909033,4196.93939352,3313.45454512,4325.72727229,3420.60606026,4892.90909042,2934.30303001,4136.15151474,519.272727221,4382.90909047,86.5454545368,4269.57575715,45.3333333288,4780.60606013,3902.7878784,4399.39393895,193.696969678,42.0,42.0,?
2017-08-07 12:16:44.474671,4476.66666622,4154.18181777,4021.78787839,4071.75757535,3896.0909087,478.060606013,3801.81818144,750.060605986,4238.66666624,655.272727207,4483.36363592,581.090909033,4201.57575716,3313.45454512,4329.3333329,3420.60606026,4893.42424193,2934.30303001,4133.06060565,519.272727221,4377.75757532,86.5454545368,4268.54545412,45.3333333288,4776.48484801,3902.7878784,4399.39393895,193.696969678,42.0,42.0,?
2017-08-07 12:16:44.481269,4482.8484844,4154.18181777,4036.21212081,4071.75757535,3898.15151476,478.060606013,3804.90909053,750.060605986,4233.51515109,655.272727207,4493.1515147,581.090909033,4206.21212079,3313.45454512,4338.09090866,3420.60606026,4905.27272678,2934.30303001,4142.84848443,519.272727221,4381.36363593,86.5454545368,4280.90909048,45.3333333288,4779.5757571,3902.7878784,4402.48484804,193.696969678,42.0,42.0,?
2017-08-07 12:16:44.490045,4484.90909046,4154.18181777,4039.81818141,4071.75757535,3897.12121173,478.060606013,3804.39393901,750.060605986,4233.51515109,655.272727207,4494.18181773,581.090909033,4195.39393897,3313.45454512,4333.96969654,3420.60606026,4898.06060557,2934.30303001,4152.12121171,519.272727221,4387.54545411,86.5454545368,4286.57575715,45.3333333288,4788.33333285,3902.7878784,4404.54545411,193.696969678,42.0,42.0,?
2017-08-07 12:16:44.495986,4479.24242379,4154.18181777,4033.63636323,4071.75757535,3900.21212082,478.060606013,3804.39393901,750.060605986,4240.7272723,655.272727207,4484.39393895,581.090909033,4186.63636322,3313.45454512,4326.24242381,3420.60606026,4884.66666618,2934.30303001,4150.57575716,519.272727221,4391.15151471,86.5454545368,4280.90909048,45.3333333288,4786.27272679,3902.7878784,4405.57575714,193.696969678,42.0,42.0,?
2017-08-07 12:16:44.503997,4481.81818137,4154.18181777,4038.78787838,4071.75757535,3903.30302991,478.060606013,3805.93939356,750.060605986,4243.81818139,655.272727207,4487.99999955,581.090909033,4190.24242382,3313.45454512,4330.87878745,3420.60606026,4888.7878783,2934.30303001,4150.57575716,519.272727221,4393.21212077,86.5454545368,4280.39393897,45.3333333288,4780.09090861,3902.7878784,4409.18181774,193.696969678,42.0,42.0,?
2017-08-07 12:16:44.514572,4490.06060561,4154.18181777,4052.18181778,4071.75757535,3900.21212082,478.060606013,3804.90909053,750.060605986,4238.15151473,655.272727207,4495.21212076,581.090909033,4195.90909049,3313.45454512,4337.57575714,3420.60606026,4891.87878739,2934.30303001,4155.72727231,519.272727221,4394.2424238,86.5454545368,4285.54545412,45.3333333288,4788.33333285,3902.7878784,4411.2424238,193.696969678,42.0,42.0,?
2017-08-07 12:16:44.523008,4487.48484804,4154.18181777,4055.27272687,4071.75757535,3898.15151476,478.060606013,3803.36363598,750.060605986,4234.54545412,655.272727207,4494.69696925,581.090909033,4200.03030261,3313.45454512,4336.54545411,3420.60606026,4877.96969648,2934.30303001,4152.12121171,519.272727221,4392.18181774,86.5454545368,4284.51515109,45.3333333288,4791.93939346,3902.7878784,4407.12121168,193.696969678,42.0,42.0,?
2017-08-07 12:16:44.528432,4479.75757531,4154.18181777,4047.03030263,4071.75757535,3896.0909087,478.060606013,3801.30302992,750.060605986,4234.03030261,655.272727207,4491.60606016,581.090909033,4204.15151473,3313.45454512,4330.87878745,3420.60606026,4866.63636315,2934.30303001,4142.84848443,519.272727221,4384.45454502,86.5454545368,4274.21212078,45.3333333288,4779.06060558,3902.7878784,4401.45454501,193.696969678,42.0,42.0,?
2017-08-07 12:16:44.538108,4477.69696925,4154.18181777,4047.54545414,4071.75757535,3895.06060567,478.060606013,3800.78787841,750.060605986,4235.06060564,655.272727207,4488.51515107,581.090909033,4206.72727231,3313.45454512,4329.3333329,3420.60606026,4865.60606012,2934.30303001,4141.30302989,519.272727221,4380.3333329,86.5454545368,4272.66666624,45.3333333288,4771.84848437,3902.7878784,4402.48484804,193.696969678,42.0,42.0,?
2017-08-07 12:16:44.543906,4485.93939349,4154.18181777,4059.39393899,4071.75757535,3897.12121173,478.060606013,3805.93939356,750.060605986,4238.15151473,655.272727207,4490.57575713,581.090909033,4211.36363594,3313.45454512,4338.60606017,3420.60606026,4865.0909086,2934.30303001,4156.75757534,519.272727221,4391.66666623,86.5454545368,4285.0303026,45.3333333288,4784.72727225,3902.7878784,4411.75757532,193.696969678,42.0,42.0,?
2017-08-07 12:16:44.555832,4490.57575713,4154.18181777,4064.54545414,4071.75757535,3900.72727234,478.060606013,3809.03030265,750.060605986,4241.24242382,655.272727207,4496.75757531,581.090909033,4212.39393897,3313.45454512,4346.84848441,3420.60606026,4867.15151466,2934.30303001,4164.48484807,519.272727221,4399.39393895,86.5454545368,4289.66666624,45.3333333288,4794.51515104,3902.7878784,4415.87878744,193.696969678,42.0,42.0,?
2017-08-07 12:16:44.559555,4486.45454501,4154.18181777,4065.06060565,4071.75757535,3905.36363597,478.060606013,3806.45454507,750.060605986,4242.78787836,655.272727207,4495.21212076,581.090909033,4205.69696928,3313.45454512,4344.78787835,3420.60606026,4869.72727224,2934.30303001,4154.18181777,519.272727221,4392.18181774,86.5454545368,4288.63636321,45.3333333288,4786.78787831,3902.7878784,4410.21212077,193.696969678,42.0,42.0,?
2017-08-07 12:16:44.590050,4487.99999955,4154.18181777,4071.24242384,4071.75757535,3904.84848446,478.060606013,3803.8787875,750.060605986,4239.69696927,655.272727207,4492.63636319,581.090909033,4201.06060564,3313.45454512,4343.24242381,3420.60606026,4865.60606012,2934.30303001,4151.60606019,519.272727221,4392.69696926,86.5454545368,4296.36363593,45.3333333288,4783.69696922,3902.7878784,4410.21212077,193.696969678,42.0,42.0,?
2017-08-07 12:16:44.590257,4484.39393895,4154.18181777,4068.15151474,4071.75757535,3894.54545416,478.060606013,3805.42424204,750.060605986,4244.33333291,655.272727207,4498.81818137,581.090909033,4198.99999958,3313.45454512,4331.90909048,3420.60606026,4850.15151467,2934.30303001,4158.8181814,519.272727221,4404.03030259,86.5454545368,4295.84848442,45.3333333288,4792.96969649,3902.7878784,4417.9393935,193.696969678,42.0,42.0,?
2017-08-07 12:16:44.593085,4484.39393895,4154.18181777,4068.15151474,4071.75757535,3894.54545416,478.060606013,3805.42424204,750.060605986,4244.33333291,655.272727207,4498.81818137,581.090909033,4198.99999958,3313.45454512,4331.90909048,3420.60606026,4850.15151467,2934.30303001,4158.8181814,519.272727221,4404.03030259,86.5454545368,4295.84848442,45.3333333288,4792.96969649,3902.7878784,4417.9393935,193.696969678,42.0,42.0,?
2017-08-07 12:16:44.596530,4482.8484844,4154.18181777,4077.42424202,4071.75757535,3898.66666628,478.060606013,3804.39393901,750.060605986,4239.69696927,655.272727207,4495.21212076,581.090909033,4198.48484806,3313.45454512,4331.39393896,3420.60606026,4841.39393891,2934.30303001,4156.75757534,519.272727221,4397.84848441,86.5454545368,4297.39393896,45.3333333288,4787.30302982,3902.7878784,4413.30302986,193.696969678,42.0,42.0,?
2017-08-07 12:16:44.601803,4486.45454501,4154.18181777,4076.39393899,4071.75757535,3896.60606022,478.060606013,3801.30302992,750.060605986,4224.75757534,655.272727207,4485.93939349,581.090909033,4191.78787837,3313.45454512,4331.90909048,3420.60606026,4839.33333285,2934.30303001,4156.75757534,519.272727221,4390.12121168,86.5454545368,4296.36363593,45.3333333288,4780.09090861,3902.7878784,4413.81818138,193.696969678,42.0,42.0,?
2017-08-07 12:16:44.606474,4481.30302985,4154.18181777,4071.24242384,4071.75757535,3894.03030264,478.060606013,3800.27272689,750.060605986,4227.84848443,655.272727207,4485.93939349,581.090909033,4183.54545413,3313.45454512,4326.75757532,3420.60606026,4847.57575709,2934.30303001,4154.69696928,519.272727221,4385.99999956,86.5454545368,4295.3333329,45.3333333288,4777.51515104,3902.7878784,4413.30302986,193.696969678,42.0,42.0,?
2017-08-07 12:16:44.614656,4477.18181773,4154.18181777,4078.96969656,4071.75757535,3896.60606022,478.060606013,3801.30302992,750.060605986,4253.60606018,655.272727207,4498.30302985,581.090909033,4192.30302988,3313.45454512,4333.45454502,3420.60606026,4845.51515103,2934.30303001,4154.18181777,519.272727221,4390.12121168,86.5454545368,4300.99999957,45.3333333288,4781.63636316,3902.7878784,4410.72727229,193.696969678,42.0,42.0,?
2017-08-07 12:16:44.621583,4482.8484844,4166.54545413,4081.03030262,4071.75757535,3894.54545416,478.060606013,3801.30302992,750.060605986,4265.96969654,655.272727207,4508.09090864,581.090909033,4209.30302988,3313.45454512,4347.36363593,3420.60606026,4833.66666618,2934.30303001,4157.78787837,519.272727221,4393.21212077,86.5454545368,4303.57575715,45.3333333288,4785.75757528,3902.7878784,4410.21212077,193.696969678,42.0,42.0,?
2017-08-07 12:16:44.629506,4483.87878743,4166.54545413,4077.93939353,4079.99999959,3889.90909052,478.060606013,3801.81818144,750.060605986,4255.66666624,655.272727207,4511.69696925,581.090909033,4211.87878746,3313.45454512,4345.30302987,3420.60606026,4833.66666618,2934.30303001,4158.8181814,519.272727221,4391.15151471,86.5454545368,4299.96969654,45.3333333288,4780.60606013,3902.7878784,4408.15151471,193.696969678,42.0,42.0,?
2017-08-07 12:16:44.638686,4482.33333289,4166.54545413,4086.18181777,4079.99999959,3892.4848481,478.060606013,3802.84848447,750.060605986,4248.96969654,655.272727207,4512.21212076,581.090909033,4205.18181776,3313.45454512,4337.06060563,3420.60606026,4839.33333285,2934.30303001,4162.42424201,519.272727221,4390.12121168,86.5454545368,4301.51515109,45.3333333288,4778.54545407,3902.7878784,4410.72727229,193.696969678,42.0,42.0,?
2017-08-07 12:16:44.645637,4488.51515107,4166.54545413,4096.99999959,4079.99999959,3899.69696931,486.303030254,3805.42424204,750.060605986,4249.99999958,655.272727207,4505.51515106,581.090909033,4206.21212079,3313.45454512,4337.57575714,3420.60606026,4828.51515103,2934.30303001,4167.57575716,519.272727221,4393.72727229,86.5454545368,4303.57575715,45.3333333288,4785.24242376,3902.7878784,4417.42424198,193.696969678,42.0,42.0,?
2017-08-07 12:16:44.651970,4495.21212076,4166.54545413,4096.99999959,4079.99999959,3900.21212082,486.303030254,3807.99999962,741.818181744,4245.87878745,655.272727207,4498.30302985,581.090909033,4209.8181814,3313.45454512,4341.69696926,3420.60606026,4818.21212073,2934.30303001,4167.06060564,519.272727221,4398.87878744,86.5454545368,4302.54545412,45.3333333288,4793.48484801,3902.7878784,4420.51515107,193.696969678,42.0,42.0,?
2017-08-07 12:16:44.659947,4493.1515147,4166.54545413,4094.93939353,4079.99999959,3896.60606022,486.303030254,3807.4848481,741.818181744,4239.18181776,655.272727207,4495.72727228,581.090909033,4202.60606019,3313.45454512,4338.09090866,3420.60606026,4814.60606012,2934.30303001,4167.06060564,519.272727221,4400.42424198,86.5454545368,4299.96969654,45.3333333288,4794.51515104,3902.7878784,4424.63636319,193.696969678,42.0,42.0,?
2017-08-07 12:16:44.669623,4492.63636319,4166.54545413,4100.09090868,4079.99999959,3898.15151476,486.303030254,3806.96969659,741.818181744,4239.18181776,655.272727207,4495.21212076,585.212121154,4198.48484806,3313.45454512,4333.96969654,3420.60606026,4809.45454497,2934.30303001,4174.27272686,519.272727221,4400.42424198,86.5454545368,4291.7272723,45.3333333288,4789.8787874,3902.7878784,4431.84848441,193.696969678,42.0,42.0,?
2017-08-07 12:16:44.681210,4494.18181773,4166.54545413,4102.15151474,4079.99999959,3900.21212082,486.303030254,3806.45454507,741.818181744,4243.81818139,655.272727207,4498.30302985,585.212121154,4202.60606019,3313.45454512,4331.39393896,3420.60606026,4805.33333285,2934.30303001,4172.72727231,519.272727221,4402.48484804,86.5454545368,4287.09090866,45.3333333288,4791.93939346,3902.7878784,4430.81818138,193.696969678,42.0,42.0,?
2017-08-07 12:16:44.684758,4491.09090864,4166.54545413,4094.93939353,4079.99999959,3894.54545416,486.303030254,3804.90909053,741.818181744,4249.48484806,655.272727207,4506.03030258,585.212121154,4203.1212117,3313.45454512,4330.87878745,3424.72727238,4803.27272679,2934.30303001,4166.03030261,519.272727221,4404.54545411,86.5454545368,4292.75757533,45.3333333288,4797.09090861,3902.7878784,4425.66666622,193.696969678,42.0,42.0,?
2017-08-07 12:16:44.692010,4489.5454541,4166.54545413,4093.39393898,4079.99999959,3890.93939355,486.303030254,3802.84848447,741.818181744,4256.18181776,655.272727207,4513.75757531,585.212121154,4204.15151473,3313.45454512,4335.51515108,3424.72727238,4804.81818134,2942.54545425,4166.03030261,519.272727221,4401.45454501,86.5454545368,4297.39393896,45.3333333288,4791.93939346,3902.7878784,4425.66666622,193.696969678,42.0,42.0,?
2017-08-07 12:16:44.699955,4491.09090864,4166.54545413,4097.51515111,4079.99999959,3892.99999961,486.303030254,3801.81818144,741.818181744,4250.51515109,655.272727207,4510.66666622,585.212121154,4203.63636322,3313.45454512,4338.09090866,3424.72727238,4800.1818177,2942.54545425,4157.27272686,511.030302979,4395.78787835,86.5454545368,4291.7272723,45.3333333288,4784.21212073,3902.7878784,4423.09090865,193.696969678,42.0,42.0,?
2017-08-07 12:16:44.707394,4490.06060561,4166.54545413,4098.03030262,4079.99999959,3892.99999961,486.303030254,3801.30302992,741.818181744,4236.60606018,655.272727207,4497.78787834,585.212121154,4203.1212117,3313.45454512,4340.15151472,3424.72727238,4789.36363588,2942.54545425,4152.63636322,511.030302979,4397.33333289,94.7878787784,4287.60606018,45.3333333288,4795.03030255,3902.7878784,4425.15151471,193.696969678,42.0,42.0,?
2017-08-07 12:16:44.715174,4493.66666622,4166.54545413,4102.66666626,4079.99999959,3891.45454507,486.303030254,3803.36363598,741.818181744,4236.60606018,655.272727207,4494.18181773,585.212121154,4203.1212117,3313.45454512,4347.36363593,3424.72727238,4790.90909043,2942.54545425,4172.72727231,511.030302979,4404.03030259,94.7878787784,4296.36363593,32.9696969664,4806.8787874,3902.7878784,4432.87878744,193.696969678,42.0,42.0,?
2017-08-07 12:16:44.723480,4497.27272682,4166.54545413,4108.33333292,4079.99999959,3894.54545416,486.303030254,3805.93939356,741.818181744,4247.93939351,655.272727207,4504.48484803,585.212121154,4202.09090867,3313.45454512,4350.45454502,3424.72727238,4797.60606013,2942.54545425,4187.66666625,511.030302979,4408.66666623,94.7878787784,4303.57575715,32.9696969664,4801.72727225,3890.42424204,4433.90909047,193.696969678,42.0,42.0,?
2017-08-07 12:16:44.733540,4494.18181773,4166.54545413,4105.75757535,4079.99999959,3897.12121173,486.303030254,3804.39393901,741.818181744,4252.57575715,655.272727207,4510.1515147,585.212121154,4200.54545413,3313.45454512,4342.21212078,3424.72727238,4792.45454498,2942.54545425,4176.84848443,523.393939342,4412.27272683,94.7878787784,4303.06060563,32.9696969664,4799.66666619,3890.42424204,4432.36363592,193.696969678,42.0,42.0,?
2017-08-07 12:16:44.738559,4494.69696925,4166.54545413,4101.12121171,4079.99999959,3894.54545416,486.303030254,3803.36363598,741.818181744,4250.51515109,655.272727207,4507.57575713,585.212121154,4202.60606019,3313.45454512,4341.18181775,3424.72727238,4783.1818177,2942.54545425,4170.66666625,523.393939342,4418.96969653,90.6666666576,4303.06060563,32.9696969664,4807.90909043,3890.42424204,4432.36363592,193.696969678,42.0,42.0,?
2017-08-07 12:16:44.745977,4494.69696925,4166.54545413,4100.6060602,4079.99999959,3892.4848481,486.303030254,3805.42424204,741.818181744,4258.24242382,655.272727207,4509.12121167,585.212121154,4204.15151473,3313.45454512,4349.42424199,3424.72727238,4785.24242376,2942.54545425,4176.84848443,523.393939342,4424.12121168,90.6666666576,4305.63636321,37.0909090872,4814.60606012,3890.42424204,4432.36363592,193.696969678,42.0,42.0,?
2017-08-07 12:16:44.755973,4495.21212076,4166.54545413,4105.24242383,4079.99999959,3895.57575719,486.303030254,3807.4848481,741.818181744,4260.81818139,655.272727207,4511.18181773,585.212121154,4205.18181776,3313.45454512,4353.54545411,3424.72727238,4788.84848437,2942.54545425,4178.39393898,523.393939342,4427.21212077,90.6666666576,4308.7272723,37.0909090872,4819.75757528,3890.42424204,4433.90909047,193.696969678,42.0,42.0,?
2017-08-07 12:16:44.762235,4501.39393894,4166.54545413,4108.84848444,4079.99999959,3897.12121173,486.303030254,3808.51515113,741.818181744,4244.33333291,655.272727207,4511.18181773,585.212121154,4209.8181814,3313.45454512,4354.06060563,3424.72727238,4785.75757528,2942.54545425,4184.57575716,523.393939342,4430.30302986,90.6666666576,4315.93939351,37.0909090872,4822.33333285,3890.42424204,4435.96969653,193.696969678,42.0,42.0,?
2017-08-07 12:16:44.770009,4498.81818137,4166.54545413,4104.2121208,4079.99999959,3896.0909087,486.303030254,3807.4848481,741.818181744,4236.60606018,655.272727207,4512.21212076,585.212121154,4209.30302988,3313.45454512,4354.57575714,3424.72727238,4786.78787831,2942.54545425,4192.8181814,523.393939342,4426.18181774,90.6666666576,4322.12121169,37.0909090872,4813.57575709,3890.42424204,4431.84848441,193.696969678,42.0,42.0,?
2017-08-07 12:16:44.779043,4489.5454541,4166.54545413,4099.57575717,4079.99999959,3901.24242385,486.303030254,3807.4848481,741.818181744,4250.51515109,655.272727207,4513.24242379,585.212121154,4208.27272685,3313.45454512,4351.48484805,3424.72727238,4785.24242376,2942.54545425,4188.18181776,523.393939342,4419.99999956,90.6666666576,4315.93939351,37.0909090872,4806.36363588,3890.42424204,4427.21212077,193.696969678,42.0,42.0,?
2017-08-07 12:16:44.785023,4493.1515147,4166.54545413,4101.63636323,4079.99999959,3908.96969658,486.303030254,3809.03030265,741.818181744,4254.63636321,655.272727207,4509.63636319,585.212121154,4211.36363594,3313.45454512,4352.51515108,3424.72727238,4772.36363589,2942.54545425,4184.06060564,523.393939342,4421.03030259,90.6666666576,4312.84848442,37.0909090872,4813.06060558,3890.42424204,4428.75757531,193.696969678,42.0,42.0,?
2017-08-07 12:16:44.793674,4495.21212076,4166.54545413,4101.63636323,4079.99999959,3913.60606021,486.303030254,3812.63636326,741.818181744,4253.09090867,655.272727207,4511.18181773,585.212121154,4225.27272685,3313.45454512,4362.30302987,3424.72727238,4769.78787831,2942.54545425,4194.87878746,523.393939342,4426.18181774,90.6666666576,4326.24242381,37.0909090872,4822.84848437,3890.42424204,4431.33333289,193.696969678,42.0,42.0,?
2017-08-07 12:16:44.802798,4487.48484804,4166.54545413,4102.66666626,4079.99999959,3919.7878784,486.303030254,3816.24242386,741.818181744,4264.93939351,655.272727207,4520.454545,585.212121154,4235.57575715,3313.45454512,4367.45454502,3424.72727238,4785.24242376,2942.54545425,4202.60606019,523.393939342,4425.66666622,90.6666666576,4337.57575714,37.0909090872,4819.24242376,3890.42424204,4432.36363592,193.696969678,42.0,42.0,?
2017-08-07 12:16:44.811481,4489.5454541,4166.54545413,4108.33333292,4079.99999959,3927.51515112,486.303030254,3819.33333295,741.818181744,4268.54545412,655.272727207,4526.12121167,585.212121154,4226.8181814,3313.45454512,4364.36363593,3424.72727238,4780.60606013,2942.54545425,4198.99999958,523.393939342,4421.03030259,90.6666666576,4330.87878745,37.0909090872,4806.8787874,3890.42424204,4432.36363592,193.696969678,42.0,42.0,?
2017-08-07 12:16:44.827037,4494.69696925,4166.54545413,4108.84848444,4079.99999959,3928.03030264,486.303030254,3819.33333295,741.818181744,4257.7272723,655.272727207,4525.09090864,585.212121154,4220.63636321,3313.45454512,4363.84848441,3424.72727238,4757.93939346,2942.54545425,4192.8181814,523.393939342,4414.84848441,90.6666666576,4320.57575714,37.0909090872,4804.81818134,3890.42424204,4432.87878744,193.696969678,42.0,42.0,?
2017-08-07 12:16:44.829949,4494.18181773,4166.54545413,4108.33333292,4079.99999959,3926.48484809,486.303030254,3817.27272689,741.818181744,4260.30302988,655.272727207,4527.66666621,585.212121154,4231.45454503,3313.45454512,4367.45454502,3424.72727238,4751.24242377,2942.54545425,4184.57575716,523.393939342,4413.81818138,90.6666666576,4320.57575714,37.0909090872,4814.09090861,3890.42424204,4431.84848441,193.696969678,42.0,42.0,?
2017-08-07 12:16:44.835638,4489.03030258,4166.54545413,4107.30302989,4079.99999959,3929.06060567,486.303030254,3817.78787841,741.818181744,4269.57575715,655.272727207,4532.30302985,585.212121154,4237.1212117,3313.45454512,4368.48484805,3424.72727238,4752.78787831,2942.54545425,4181.99999958,523.393939342,4414.84848441,90.6666666576,4317.99999957,37.0909090872,4814.09090861,3890.42424204,4425.15151471,193.696969678,42.0,42.0,?
2017-08-07 12:16:44.840058,4485.93939349,4166.54545413,4107.30302989,4079.99999959,3928.54545415,486.303030254,3821.90909053,741.818181744,4265.96969654,655.272727207,4530.7575753,585.212121154,4227.33333291,3313.45454512,4365.39393896,3424.72727238,4754.33333286,2942.54545425,4188.69696928,523.393939342,4411.2424238,90.6666666576,4314.39393896,37.0909090872,4803.27272679,3890.42424204,4423.60606016,193.696969678,42.0,42.0,?
2017-08-07 12:16:44.849321,4493.66666622,4166.54545413,4113.99999959,4079.99999959,3930.0909087,486.303030254,3824.4848481,741.818181744,4261.84848442,655.272727207,4529.72727227,585.212121154,4222.18181776,3313.45454512,4365.39393896,3424.72727238,4754.33333286,2942.54545425,4191.27272685,523.393939342,4410.21212077,90.6666666576,4321.09090866,37.0909090872,4803.78787831,3890.42424204,4432.87878744,193.696969678,42.0,42.0,?
2017-08-07 12:16:44.857831,4495.72727228,4166.54545413,4113.48484807,4079.99999959,3935.24242385,486.303030254,3824.4848481,741.818181744,4264.93939351,655.272727207,4529.21212076,585.212121154,4221.66666624,3313.45454512,4366.42424199,3424.72727238,4740.93939347,2942.54545425,4192.30302988,523.393939342,4414.33333289,90.6666666576,4324.69696926,37.0909090872,4809.45454497,3890.42424204,4436.48484804,193.696969678,42.0,42.0,?
2017-08-07 12:16:44.864041,4488.51515107,4166.54545413,4103.18181777,4079.99999959,3935.24242385,486.303030254,3823.45454507,741.818181744,4264.93939351,655.272727207,4517.87878743,585.212121154,4213.93939352,3313.45454512,4360.75757532,3424.72727238,4730.63636316,2942.54545425,4194.87878746,523.393939342,4414.33333289,90.6666666576,4319.0303026,37.0909090872,4806.8787874,3890.42424204,4431.33333289,193.696969678,42.0,42.0,?
2017-08-07 12:16:44.873066,4490.57575713,4166.54545413,4104.2121208,4079.99999959,3930.60606021,486.303030254,3823.96969659,741.818181744,4258.75757533,655.272727207,4510.1515147,585.212121154,4210.84848443,3313.45454512,4353.54545411,3424.72727238,4735.2727268,2942.54545425,4192.8181814,523.393939342,4415.36363592,90.6666666576,4319.54545411,37.0909090872,4805.84848437,3890.42424204,4429.27272683,193.696969678,42.0,42.0,?
2017-08-07 12:16:44.879765,4494.18181773,4166.54545413,4112.45454504,4079.99999959,3927.51515112,486.303030254,3824.99999962,741.818181744,4253.09090867,655.272727207,4518.90909046,585.212121154,4216.51515109,3313.45454512,4351.99999956,3424.72727238,4734.24242377,2942.54545425,4188.18181776,523.393939342,4413.81818138,90.6666666576,4323.15151472,37.0909090872,4803.78787831,3890.42424204,4431.84848441,193.696969678,42.0,42.0,?
2017-08-07 12:16:44.887613,4491.09090864,4166.54545413,4111.42424201,4079.99999959,3929.06060567,486.303030254,3823.96969659,741.818181744,4253.09090867,655.272727207,4527.1515147,585.212121154,4220.63636321,3313.45454512,4350.45454502,3424.72727238,4721.87878741,2942.54545425,4178.90909049,523.393939342,4407.6363632,90.6666666576,4316.96969654,37.0909090872,4799.66666619,3890.42424204,4429.78787834,193.696969678,42.0,42.0,?
2017-08-07 12:16:44.895472,4490.57575713,4166.54545413,4108.33333292,4079.99999959,3930.0909087,486.303030254,3827.06060568,741.818181744,4259.27272685,655.272727207,4525.09090864,585.212121154,4222.69696927,3313.45454512,4350.45454502,3424.72727238,4716.21212074,2942.54545425,4171.18181776,523.393939342,4405.57575714,90.6666666576,4311.81818139,37.0909090872,4804.30302982,3890.42424204,4429.78787834,193.696969678,42.0,42.0,?
2017-08-07 12:16:44.902987,4491.60606016,4166.54545413,4109.36363595,4079.99999959,3929.57575718,486.303030254,3829.12121174,741.818181744,4266.48484806,655.272727207,4523.54545409,585.212121154,4218.06060564,3313.45454512,4351.48484805,3424.72727238,4718.78787832,2942.54545425,4177.87878746,523.393939342,4401.96969653,90.6666666576,4314.90909048,37.0909090872,4800.1818177,3890.42424204,4429.78787834,193.696969678,42.0,42.0,?
2017-08-07 12:16:44.913471,4486.96969652,4166.54545413,4108.84848444,4079.99999959,3927.51515112,486.303030254,3819.84848447,741.818181744,4268.0303026,655.272727207,4525.09090864,585.212121154,4208.78787837,3313.45454512,4348.90909047,3424.72727238,4707.45454498,2942.54545425,4174.27272686,523.393939342,4394.2424238,90.6666666576,4313.36363593,37.0909090872,4788.33333285,3890.42424204,4420.51515107,193.696969678,42.0,42.0,?
2017-08-07 12:16:44.918350,4486.96969652,4166.54545413,4108.84848444,4079.99999959,3927.51515112,486.303030254,3819.84848447,741.818181744,4265.45454503,655.272727207,4525.09090864,585.212121154,4208.78787837,3313.45454512,4348.90909047,3424.72727238,4707.45454498,2942.54545425,4174.27272686,523.393939342,4394.2424238,90.6666666576,4313.36363593,37.0909090872,4788.33333285,3890.42424204,4420.51515107,193.696969678,42.0,42.0,?
2017-08-07 12:16:44.926152,4489.03030258,4166.54545413,4110.39393898,4079.99999959,3926.48484809,486.303030254,3823.45454507,741.818181744,4265.45454503,655.272727207,4526.12121167,585.212121154,4217.54545412,3313.45454512,4348.39393896,3424.72727238,4704.36363589,2942.54545425,4176.33333292,523.393939342,4397.84848441,90.6666666576,4320.06060563,37.0909090872,4798.63636316,3890.42424204,4426.18181774,193.696969678,42.0,42.0,?
2017-08-07 12:16:44.936706,4496.24242379,4166.54545413,4117.09090868,4079.99999959,3930.60606021,486.303030254,3830.15151477,741.818181744,4260.30302988,655.272727207,4527.66666621,585.212121154,4202.09090867,3313.45454512,4345.81818138,3424.72727238,4715.18181771,2942.54545425,4171.69696928,523.393939342,4400.9393935,90.6666666576,4337.06060563,37.0909090872,4801.72727225,3890.42424204,4427.72727228,193.696969678,42.0,42.0,?
2017-08-07 12:16:44.943001,4496.24242379,4166.54545413,4117.09090868,4079.99999959,3930.60606021,486.303030254,3830.15151477,741.818181744,4260.30302988,655.272727207,4527.66666621,585.212121154,4202.09090867,3313.45454512,4345.81818138,3424.72727238,4715.18181771,2942.54545425,4171.69696928,523.393939342,4400.9393935,90.6666666576,4337.06060563,37.0909090872,4801.72727225,3890.42424204,4427.72727228,193.696969678,42.0,42.0,?
2017-08-07 12:16:44.951765,4494.18181773,4166.54545413,4113.48484807,4079.99999959,3928.03030264,486.303030254,3826.54545416,741.818181744,4256.69696927,655.272727207,4524.06060561,585.212121154,4201.57575716,3313.45454512,4341.69696926,3424.72727238,4715.18181771,2942.54545425,4168.60606019,523.393939342,4397.84848441,90.6666666576,4329.84848442,37.0909090872,4791.42424195,3890.42424204,4423.09090865,193.696969678,42.0,42.0,?
2017-08-07 12:16:44.957386,4491.60606016,4166.54545413,4106.27272686,4079.99999959,3925.45454506,486.303030254,3827.06060568,741.818181744,4262.87878745,655.272727207,4523.54545409,585.212121154,4206.21212079,3313.45454512,4343.75757532,3424.72727238,4705.90909044,2942.54545425,4179.93939352,523.393939342,4404.54545411,90.6666666576,4337.06060563,37.0909090872,4791.42424195,3890.42424204,4421.03030259,193.696969678,42.0,42.0,?
2017-08-07 12:16:44.965215,4492.12121167,4166.54545413,4101.12121171,4079.99999959,3925.96969658,486.303030254,3832.21212083,741.818181744,4270.09090866,655.272727207,4523.03030258,585.212121154,4203.63636322,3313.45454512,4346.84848441,3424.72727238,4701.2727268,2942.54545425,4186.1212117,523.393939342,4414.33333289,90.6666666576,4344.27272684,37.0909090872,4802.75757528,3890.42424204,4425.15151471,193.696969678,42.0,42.0,?
2017-08-07 12:16:44.974484,4494.18181773,4166.54545413,4100.09090868,4079.99999959,3928.03030264,486.303030254,3833.24242386,741.818181744,4263.39393897,655.272727207,4518.90909046,585.212121154,4204.66666625,3313.45454512,4346.3333329,3424.72727238,4715.69696923,2942.54545425,4184.06060564,523.393939342,4410.72727229,90.6666666576,4336.0303026,37.0909090872,4805.33333285,3890.42424204,4432.36363592,193.696969678,42.0,42.0,?
2017-08-07 12:16:44.981284,4499.33333288,4166.54545413,4101.63636323,4079.99999959,3929.06060567,486.303030254,3832.21212083,741.818181744,4259.27272685,655.272727207,4520.454545,585.212121154,4211.87878746,3313.45454512,4347.87878744,3424.72727238,4718.2727268,2942.54545425,4179.93939352,523.393939342,4408.15151471,90.6666666576,4332.42424199,37.0909090872,4801.21212073,3890.42424204,4433.39393895,193.696969678,42.0,42.0,?
2017-08-07 12:16:44.990038,4502.93939349,4166.54545413,4105.24242383,4079.99999959,3928.54545415,486.303030254,3833.75757537,741.818181744,4267.51515109,655.272727207,4527.1515147,585.212121154,4209.8181814,3313.45454512,4349.42424199,3424.72727238,4701.2727268,2942.54545425,4181.99999958,523.393939342,4412.27272683,90.6666666576,4336.54545411,37.0909090872,4800.69696922,3890.42424204,4433.39393895,193.696969678,42.0,42.0,?
2017-08-07 12:16:44.998973,4500.87878743,4166.54545413,4107.81818141,4079.99999959,3927.51515112,486.303030254,3832.72727234,741.818181744,4273.18181775,655.272727207,4528.69696924,585.212121154,4210.33333291,3313.45454512,4351.48484805,3424.72727238,4698.69696923,2942.54545425,4187.15151473,523.393939342,4411.2424238,90.6666666576,4338.60606017,37.0909090872,4805.33333285,3890.42424204,4433.39393895,193.696969678,42.0,42.0,?
2017-08-07 12:16:45.003982,4502.42424197,4166.54545413,4108.33333292,4079.99999959,3928.03030264,486.303030254,3833.24242386,741.818181744,4269.06060563,655.272727207,4527.66666621,585.212121154,4221.15151473,3313.45454512,4354.57575714,3424.72727238,4705.39393892,2942.54545425,4184.06060564,523.393939342,4414.84848441,90.6666666576,4342.21212078,37.0909090872,4814.09090861,3890.42424204,4433.39393895,193.696969678,42.0,42.0,?
2017-08-07 12:16:45.012882,4504.99999955,4166.54545413,4110.9090905,4079.99999959,3929.57575718,486.303030254,3834.7878784,741.818181744,4268.0303026,655.272727207,4527.66666621,585.212121154,4214.45454503,3313.45454512,4351.48484805,3424.72727238,4701.2727268,2942.54545425,4182.5151511,523.393939342,4418.96969653,90.6666666576,4343.75757532,37.0909090872,4812.03030255,3890.42424204,4436.99999956,193.696969678,42.0,42.0,?
2017-08-07 12:16:45.021033,4499.8484844,4166.54545413,4112.96969656,4079.99999959,3928.03030264,486.303030254,3833.24242386,741.818181744,4272.66666624,655.272727207,4526.63636318,585.212121154,4200.54545413,3313.45454512,4344.78787835,3424.72727238,4697.15151468,2942.54545425,4186.1212117,523.393939342,4413.30302986,90.6666666576,4334.48484805,37.0909090872,4806.8787874,3890.42424204,4434.9393935,193.696969678,42.0,42.0,?
2017-08-07 12:16:45.028046,4498.30302985,4166.54545413,4112.96969656,4079.99999959,3924.42424203,486.303030254,3830.15151477,741.818181744,4271.12121169,655.272727207,4527.1515147,585.212121154,4212.39393897,3313.45454512,4342.72727229,3424.72727238,4698.69696923,2942.54545425,4182.5151511,523.393939342,4411.2424238,90.6666666576,4330.87878745,37.0909090872,4812.54545406,3890.42424204,4430.81818138,193.696969678,42.0,42.0,?
2017-08-07 12:16:45.035920,4501.90909046,4166.54545413,4118.12121171,4079.99999959,3928.54545415,486.303030254,3830.66666628,741.818181744,4266.48484806,655.272727207,4525.60606015,585.212121154,4223.21212079,3313.45454512,4346.84848441,3424.72727238,4695.60606014,2942.54545425,4185.09090867,523.393939342,4416.90909047,90.6666666576,4347.87878744,37.0909090872,4816.66666619,3890.42424204,4436.48484804,193.696969678,42.0,42.0,?
2017-08-07 12:16:45.043567,4503.454545,4166.54545413,4127.39393898,4079.99999959,3935.24242385,486.303030254,3836.84848446,741.818181744,4273.18181775,655.272727207,4524.57575712,585.212121154,4218.06060564,3313.45454512,4358.69696926,3424.72727238,4699.21212074,2942.54545425,4197.45454503,523.393939342,4422.57575713,90.6666666576,4356.12121169,37.0909090872,4817.1818177,3890.42424204,4450.39393895,193.696969678,42.0,42.0,?
2017-08-07 12:16:45.051654,4507.06060561,4166.54545413,4132.03030262,4079.99999959,3935.24242385,486.303030254,3839.93939356,741.818181744,4277.30302988,655.272727207,4527.1515147,585.212121154,4223.7272723,3313.45454512,4364.87878744,3424.72727238,4711.06060559,2942.54545425,4203.63636322,523.393939342,4423.09090865,90.6666666576,4347.36363593,37.0909090872,4814.09090861,3890.42424204,4455.5454541,193.696969678,42.0,42.0,?
2017-08-07 12:16:45.059870,4512.72727228,4166.54545413,4127.9090905,4079.99999959,3935.75757536,486.303030254,3837.36363598,741.818181744,4266.48484806,655.272727207,4526.63636318,585.212121154,4224.24242382,3313.45454512,4353.03030259,3424.72727238,4706.42424195,2942.54545425,4200.03030261,523.393939342,4416.39393895,90.6666666576,4349.42424199,37.0909090872,4807.39393891,3890.42424204,4449.87878743,193.696969678,42.0,42.0,?
2017-08-07 12:16:45.067515,4510.1515147,4166.54545413,4130.48484807,4079.99999959,3937.81818142,486.303030254,3834.7878784,741.818181744,4265.45454503,655.272727207,4522.51515106,585.212121154,4208.27272685,3313.45454512,4341.69696926,3424.72727238,4689.93939347,2942.54545425,4197.45454503,523.393939342,4413.81818138,90.6666666576,4356.6363632,37.0909090872,4804.81818134,3890.42424204,4447.30302986,193.696969678,42.0,42.0,?
2017-08-07 12:16:45.075137,4506.03030258,4166.54545413,4139.24242383,4079.99999959,3940.393939,486.303030254,3837.87878749,741.818181744,4272.66666624,655.272727207,4522.51515106,585.212121154,4206.21212079,3313.45454512,4348.39393896,3424.72727238,4684.78787832,2942.54545425,4196.424242,523.393939342,4416.39393895,90.6666666576,4350.96969653,37.0909090872,4809.45454497,3890.42424204,4449.36363592,193.696969678,42.0,42.0,?
2017-08-07 12:16:45.084546,4507.57575713,4166.54545413,4141.30302989,4079.99999959,3940.393939,486.303030254,3844.06060568,741.818181744,4268.0303026,655.272727207,4525.09090864,585.212121154,4217.03030261,3313.45454512,4353.54545411,3424.72727238,4688.39393893,2942.54545425,4200.03030261,523.393939342,4413.30302986,90.6666666576,4349.42424199,37.0909090872,4808.42424194,3890.42424204,4447.30302986,193.696969678,42.0,42.0,?
2017-08-07 12:16:45.090935,4509.63636319,4166.54545413,4141.30302989,4079.99999959,3938.84848445,486.303030254,3848.1818178,741.818181744,4264.93939351,655.272727207,4526.12121167,585.212121154,4221.66666624,3313.45454512,4352.51515108,3424.72727238,4690.45454499,2942.54545425,4205.69696928,523.393939342,4413.30302986,90.6666666576,4362.30302987,37.0909090872,4806.8787874,3890.42424204,4446.27272683,193.696969678,42.0,42.0,?
2017-08-07 12:16:45.099608,4512.72727228,4166.54545413,4149.03030262,4079.99999959,3940.393939,486.303030254,3848.1818178,741.818181744,4270.60606018,655.272727207,4529.72727227,585.212121154,4222.18181776,3313.45454512,4357.66666623,3424.72727238,4693.03030256,2942.54545425,4210.84848443,523.393939342,4423.60606016,90.6666666576,4369.51515108,37.0909090872,4814.09090861,3890.42424204,4449.87878743,193.696969678,42.0,42.0,?
2017-08-07 12:16:45.108719,4510.66666622,4166.54545413,4150.06060565,4079.99999959,3937.81818142,486.303030254,3840.96969659,741.818181744,4269.57575715,655.272727207,4523.54545409,585.212121154,4219.60606018,3313.45454512,4358.69696926,3424.72727238,4690.9696965,2942.54545425,4216.51515109,523.393939342,4424.12121168,90.6666666576,4366.9393935,37.0909090872,4819.75757528,3890.42424204,4449.36363592,193.696969678,42.0,42.0,?
2017-08-07 12:16:45.115000,4507.57575713,4166.54545413,4140.27272686,4079.99999959,3932.15151476,486.303030254,3839.42424204,741.818181744,4266.48484806,655.272727207,4513.75757531,585.212121154,4217.54545412,3313.45454512,4350.96969653,3424.72727238,4681.18181771,2942.54545425,4215.99999958,523.393939342,4415.87878744,90.6666666576,4366.42424199,37.0909090872,4819.24242376,3890.42424204,4448.33333289,193.696969678,42.0,42.0,?
2017-08-07 12:16:45.122286,4511.18181773,4166.54545413,4143.87878746,4079.99999959,3931.63636324,486.303030254,3845.60606022,741.818181744,4272.66666624,655.272727207,4519.42424197,585.212121154,4218.57575715,3313.45454512,4351.48484805,3424.72727238,4677.06060559,2942.54545425,4211.87878746,523.393939342,4417.9393935,90.6666666576,4368.48484805,37.0909090872,4818.72727225,3890.42424204,4453.48484804,193.696969678,42.0,42.0,?
2017-08-07 12:16:45.138652,4512.21212076,4158.30302989,4154.18181777,4079.99999959,3934.21212082,486.303030254,3849.72727234,741.818181744,4276.27272685,655.272727207,4527.66666621,585.212121154,4211.36363594,3313.45454512,4352.51515108,3424.72727238,4669.33333287,2942.54545425,4209.8181814,523.393939342,4419.48484804,90.6666666576,4361.27272684,37.0909090872,4816.15151467,3890.42424204,4450.39393895,193.696969678,42.0,42.0,?
2017-08-07 12:16:45.143842,4506.54545409,4158.30302989,4155.72727231,4071.75757535,3929.06060567,486.303030254,3845.60606022,741.818181744,4270.09090866,655.272727207,4527.1515147,585.212121154,4204.66666625,3313.45454512,4345.81818138,3424.72727238,4651.81818135,2942.54545425,4201.57575716,523.393939342,4412.78787835,90.6666666576,4355.09090866,37.0909090872,4815.63636315,3890.42424204,4443.18181774,193.696969678,42.0,42.0,?
2017-08-07 12:16:45.147605,4503.454545,4158.30302989,4152.63636322,4071.75757535,3926.48484809,486.303030254,3839.93939356,741.818181744,4262.36363594,655.272727207,4527.66666621,585.212121154,4213.93939352,3313.45454512,4351.99999956,3424.72727238,4656.45454499,2942.54545425,4197.45454503,523.393939342,4412.27272683,90.6666666576,4366.42424199,37.0909090872,4815.63636315,3890.42424204,4443.18181774,185.454545436,42.0,42.0,?
2017-08-07 12:16:45.155494,4504.48484803,4158.30302989,4154.69696928,4071.75757535,3929.06060567,482.181818134,3838.90909053,741.818181744,4265.96969654,655.272727207,4529.72727227,585.212121154,4224.75757534,3313.45454512,4367.45454502,3424.72727238,4672.42424196,2942.54545425,4208.78787837,523.393939342,4416.90909047,90.6666666576,4377.75757532,37.0909090872,4813.06060558,3890.42424204,4444.72727228,185.454545436,42.0,42.0,?
2017-08-07 12:16:45.164201,4507.57575713,4158.30302989,4158.8181814,4071.75757535,3929.57575718,482.181818134,3843.54545416,745.939393865,4278.33333291,655.272727207,4529.72727227,585.212121154,4226.8181814,3313.45454512,4366.9393935,3424.72727238,4665.21212075,2942.54545425,4215.99999958,523.393939342,4417.42424198,90.6666666576,4375.18181774,37.0909090872,4811.51515103,3890.42424204,4443.69696925,185.454545436,42.0,42.0,?
2017-08-07 12:16:45.169868,4511.18181773,4158.30302989,4157.27272686,4071.75757535,3929.57575718,482.181818134,3846.63636325,745.939393865,4283.48484806,642.909090845,4531.27272682,585.212121154,4225.78787837,3313.45454512,4359.21212078,3424.72727238,4653.3636359,2942.54545425,4207.75757534,523.393939342,4416.90909047,90.6666666576,4373.6363632,37.0909090872,4815.12121164,3890.42424204,4445.2424238,185.454545436,42.0,42.0,?
2017-08-07 12:16:45.176566,4509.63636319,4158.30302989,4155.2121208,4071.75757535,3926.99999961,482.181818134,3846.12121174,745.939393865,4283.99999957,642.909090845,4533.33333288,576.969696912,4223.21212079,3313.45454512,4359.21212078,3424.72727238,4651.30302984,2942.54545425,4206.72727231,523.393939342,4423.09090865,90.6666666576,4382.39393896,37.0909090872,4820.78787831,3890.42424204,4449.36363592,185.454545436,42.0,42.0,?
2017-08-07 12:16:45.185406,4511.18181773,4158.30302989,4159.84848443,4071.75757535,3927.51515112,482.181818134,3848.1818178,745.939393865,4278.84848442,642.909090845,4530.24242379,576.969696912,4220.1212117,3321.69696936,4355.60606017,3424.72727238,4637.90909045,2942.54545425,4214.96969655,523.393939342,4424.63636319,90.6666666576,4379.30302987,37.0909090872,4825.93939346,3890.42424204,4450.39393895,185.454545436,42.0,42.0,?
2017-08-07 12:16:45.194084,4518.39393894,4158.30302989,4164.99999958,4071.75757535,3931.12121173,482.181818134,3849.72727234,745.939393865,4273.69696927,642.909090845,4529.72727227,576.969696912,4219.09090867,3321.69696936,4351.99999956,3416.48484814,4621.93939348,2942.54545425,4211.36363594,523.393939342,4417.9393935,90.6666666576,4366.42424199,37.0909090872,4822.84848437,3890.42424204,4448.33333289,185.454545436,42.0,42.0,?
2017-08-07 12:16:45.200567,4516.8484844,4158.30302989,4158.8181814,4071.75757535,3930.0909087,482.181818134,3846.63636325,745.939393865,4277.81818139,642.909090845,4535.39393894,576.969696912,4221.15151473,3321.69696936,4356.12121169,3416.48484814,4622.45454499,2967.27272698,4204.15151473,523.393939342,4421.03030259,90.6666666576,4372.09090865,37.0909090872,4822.84848437,3890.42424204,4452.96969652,185.454545436,42.0,42.0,?
2017-08-07 12:16:45.207949,4515.30302985,4158.30302989,4157.27272686,4071.75757535,3928.03030264,482.181818134,3847.15151477,745.939393865,4278.84848442,642.909090845,4534.36363591,576.969696912,4224.24242382,3321.69696936,4358.18181775,3416.48484814,4619.87878742,2967.27272698,4207.24242382,519.272727221,4431.33333289,90.6666666576,4385.99999956,37.0909090872,4831.60606012,3890.42424204,4460.18181774,185.454545436,42.0,42.0,?
2017-08-07 12:16:45.215563,4521.99999955,4158.30302989,4170.15151473,4071.75757535,3929.06060567,482.181818134,3848.69696931,745.939393865,4273.69696927,642.909090845,4527.1515147,576.969696912,4220.63636321,3321.69696936,4358.18181775,3416.48484814,4615.24242378,2967.27272698,4212.90909049,519.272727221,4430.81818138,82.424242416,4382.90909047,37.0909090872,4831.09090861,3890.42424204,4456.57575713,185.454545436,42.0,42.0,?
2017-08-07 12:16:45.223743,4521.48484803,4158.30302989,4171.69696928,4071.75757535,3929.57575718,482.181818134,3848.1818178,745.939393865,4280.39393897,642.909090845,4526.12121167,576.969696912,4213.424242,3321.69696936,4362.81818138,3416.48484814,4617.81818136,2967.27272698,4212.39393897,519.272727221,4422.06060562,82.424242416,4371.57575714,41.212121208,4820.27272679,3890.42424204,4449.87878743,185.454545436,42.0,42.0,?
2017-08-07 12:16:45.235007,4513.24242379,4158.30302989,4158.8181814,4071.75757535,3928.03030264,482.181818134,3847.66666628,745.939393865,4290.69696927,642.909090845,4531.27272682,576.969696912,4216.51515109,3321.69696936,4363.3333329,3416.48484814,4606.99999954,2967.27272698,4210.84848443,519.272727221,4419.99999956,82.424242416,4370.03030259,41.212121208,4820.27272679,3890.42424204,4449.87878743,185.454545436,42.0,42.0,?
2017-08-07 12:16:45.240160,4512.21212076,4158.30302989,4159.33333292,4071.75757535,3928.03030264,482.181818134,3848.1818178,745.939393865,4287.60606018,642.909090845,4531.27272682,576.969696912,4224.24242382,3321.69696936,4360.24242381,3416.48484814,4584.33333287,2967.27272698,4214.45454503,511.030302979,4424.63636319,82.424242416,4369.51515108,41.212121208,4827.484848,3890.42424204,4449.36363592,185.454545436,42.0,42.0,?
2017-08-07 12:16:45.248630,4519.93939349,4158.30302989,4173.24242383,4071.75757535,3930.0909087,482.181818134,3850.24242386,745.939393865,4284.51515109,642.909090845,4528.69696924,576.969696912,4225.27272685,3321.69696936,4366.9393935,3416.48484814,4585.87878742,2967.27272698,4224.24242382,511.030302979,4431.33333289,94.7878787784,4374.66666623,41.212121208,4833.15151467,3890.42424204,4454.51515107,185.454545436,42.0,42.0,?
2017-08-07 12:16:45.256324,4525.60606015,4158.30302989,4175.30302989,4071.75757535,3930.0909087,482.181818134,3851.7878784,745.939393865,4287.60606018,642.909090845,4530.7575753,576.969696912,4220.63636321,3321.69696936,4370.03030259,3416.48484814,4597.72727227,2967.27272698,4235.57575715,511.030302979,4437.51515107,94.7878787784,4382.90909047,41.212121208,4837.7878783,3890.42424204,4465.33333289,185.454545436,42.0,42.0,?
2017-08-07 12:16:45.262387,4524.57575712,4158.30302989,4170.15151473,4071.75757535,3926.48484809,482.181818134,3851.27272689,745.939393865,4286.57575715,642.909090845,4529.21212076,576.969696912,4218.06060564,3321.69696936,4355.60606017,3416.48484814,4579.18181772,2967.27272698,4229.90909049,511.030302979,4437.51515107,94.7878787784,4373.12121168,41.212121208,4834.69696921,3890.42424204,4465.33333289,185.454545436,42.0,42.0,?
2017-08-07 12:16:45.271516,4524.06060561,4158.30302989,4172.21212079,4071.75757535,3928.54545415,482.181818134,3851.27272689,745.939393865,4285.54545412,642.909090845,4529.21212076,576.969696912,4223.21212079,3321.69696936,4347.36363593,3416.48484814,4559.09090864,2967.27272698,4211.36363594,511.030302979,4432.87878744,94.7878787784,4359.72727229,41.212121208,4825.42424194,3890.42424204,4461.72727228,185.454545436,42.0,42.0,?
2017-08-07 12:16:45.278817,4526.12121167,4158.30302989,4173.75757534,4071.75757535,3930.60606021,482.181818134,3850.24242386,745.939393865,4282.96969654,642.909090845,4535.39393894,576.969696912,4224.24242382,3321.69696936,4351.99999956,3416.48484814,4559.60606015,2967.27272698,4211.36363594,511.030302979,4427.21212077,94.7878787784,4361.27272684,41.212121208,4822.33333285,3890.42424204,4465.33333289,185.454545436,42.0,42.0,?
2017-08-07 12:16:45.286537,4522.51515106,4158.30302989,4170.15151473,4071.75757535,3922.87878749,482.181818134,3848.1818178,745.939393865,4278.84848442,642.909090845,4535.90909046,576.969696912,4217.54545412,3321.69696936,4351.48484805,3416.48484814,4557.03030257,2967.27272698,4227.84848443,511.030302979,4428.75757531,94.7878787784,4370.03030259,41.212121208,4828.51515103,3890.42424204,4464.30302986,185.454545436,42.0,42.0,?
2017-08-07 12:16:45.295133,4524.06060561,4158.30302989,4170.66666625,4071.75757535,3920.81818143,482.181818134,3849.72727234,745.939393865,4276.27272685,642.909090845,4535.39393894,576.969696912,4222.69696927,3321.69696936,4351.48484805,3416.48484814,4551.87878742,2967.27272698,4235.06060564,511.030302979,4440.60606016,94.7878787784,4377.2424238,41.212121208,4837.7878783,3890.42424204,4461.72727228,185.454545436,42.0,42.0,?
2017-08-07 12:16:45.302563,4531.27272682,4158.30302989,4175.8181814,4071.75757535,3930.60606021,482.181818134,3851.7878784,745.939393865,4276.27272685,642.909090845,4536.42424197,576.969696912,4232.48484806,3321.69696936,4359.21212078,3416.48484814,4553.93939348,2967.27272698,4236.09090867,511.030302979,4447.81818137,94.7878787784,4381.87878744,41.212121208,4839.84848436,3890.42424204,4468.93939349,185.454545436,42.0,42.0,?
2017-08-07 12:16:45.310271,4528.18181773,4158.30302989,4175.30302989,4071.75757535,3933.18181779,482.181818134,3851.7878784,745.939393865,4279.36363594,642.909090845,4535.90909046,576.969696912,4229.39393897,3321.69696936,4360.24242381,3416.48484814,4558.0606056,2967.27272698,4239.69696927,511.030302979,4443.18181774,94.7878787784,4378.78787835,41.212121208,4837.7878783,3890.42424204,4475.63636319,185.454545436,42.0,42.0,?
2017-08-07 12:16:45.317842,4521.99999955,4158.30302989,4170.15151473,4071.75757535,3925.96969658,482.181818134,3851.27272689,745.939393865,4281.424242,642.909090845,4537.96969652,576.969696912,4224.75757534,3321.69696936,4358.69696926,3416.48484814,4559.09090864,2967.27272698,4243.30302988,511.030302979,4440.60606016,94.7878787784,4380.84848441,41.212121208,4841.39393891,3890.42424204,4468.93939349,185.454545436,42.0,42.0,?
2017-08-07 12:16:45.325928,4524.57575712,4158.30302989,4171.69696928,4071.75757535,3925.45454506,482.181818134,3849.72727234,745.939393865,4283.99999957,642.909090845,4544.1515147,576.969696912,4231.96969655,3321.69696936,4364.36363593,3416.48484814,4555.99999954,2967.27272698,4249.99999958,511.030302979,4445.75757531,94.7878787784,4393.21212077,41.212121208,4849.63636315,3890.42424204,4462.2424238,185.454545436,42.0,42.0,?
2017-08-07 12:16:45.338297,4527.66666621,4158.30302989,4174.78787837,4071.75757535,3929.57575718,482.181818134,3850.24242386,745.939393865,4286.06060563,642.909090845,4546.21212076,576.969696912,4238.66666624,3321.69696936,4369.51515108,3416.48484814,4545.69696924,2967.27272698,4247.93939351,511.030302979,4447.81818137,94.7878787784,4391.66666623,41.212121208,4853.75757527,3890.42424204,4466.36363592,185.454545436,42.0,42.0,?
2017-08-07 12:16:45.341031,4526.63636318,4158.30302989,4172.21212079,4071.75757535,3928.03030264,482.181818134,3851.27272689,745.939393865,4283.48484806,642.909090845,4543.63636318,576.969696912,4236.60606018,3321.69696936,4368.48484805,3416.48484814,4536.93939349,2967.27272698,4239.69696927,511.030302979,4443.69696925,94.7878787784,4379.30302987,41.212121208,4848.60606012,3890.42424204,4466.87878743,185.454545436,42.0,42.0,?
2017-08-07 12:16:45.354485,4525.09090864,4158.30302989,4174.78787837,4071.75757535,3923.393939,482.181818134,3847.66666628,745.939393865,4283.99999957,642.909090845,4543.12121167,576.969696912,4228.36363594,3321.69696936,4362.81818138,3416.48484814,4532.81818136,2967.27272698,4243.81818139,511.030302979,4445.75757531,94.7878787784,4391.66666623,41.212121208,4850.66666618,3890.42424204,4464.81818137,185.454545436,42.0,42.0,?
2017-08-07 12:16:45.358101,4525.09090864,4158.30302989,4174.78787837,4071.75757535,3923.393939,482.181818134,3847.66666628,745.939393865,4283.99999957,642.909090845,4543.12121167,576.969696912,4228.36363594,3321.69696936,4362.81818138,3416.48484814,4532.81818136,2967.27272698,4243.81818139,511.030302979,4445.75757531,94.7878787784,4391.66666623,41.212121208,4850.66666618,3890.42424204,4464.81818137,185.454545436,42.0,42.0,?
2017-08-07 12:16:45.364513,4526.12121167,4158.30302989,4176.33333292,4071.75757535,3928.03030264,482.181818134,3850.24242386,745.939393865,4286.57575715,642.909090845,4543.12121167,576.969696912,4234.03030261,3321.69696936,4366.9393935,3416.48484814,4540.54545409,2967.27272698,4240.7272723,511.030302979,4447.30302986,94.7878787784,4397.84848441,41.212121208,4850.66666618,3890.42424204,4465.8484844,185.454545436,42.0,42.0,?
2017-08-07 12:16:45.373557,4524.06060561,4158.30302989,4172.72727231,4071.75757535,3924.93939355,482.181818134,3848.69696931,745.939393865,4289.15151472,642.909090845,4545.18181773,576.969696912,4238.15151473,3321.69696936,4370.54545411,3416.48484814,4536.93939349,2967.27272698,4241.75757533,511.030302979,4444.21212077,94.7878787784,4393.21212077,41.212121208,4850.15151467,3890.42424204,4464.30302986,185.454545436,42.0,42.0,?
2017-08-07 12:16:45.386529,4518.39393894,4158.30302989,4170.66666625,4071.75757535,3921.84848446,482.181818134,3846.12121174,745.939393865,4294.81818139,642.909090845,4545.69696924,576.969696912,4234.54545412,3321.69696936,4371.06060562,3416.48484814,4526.12121167,2967.27272698,4243.81818139,511.030302979,4443.69696925,94.7878787784,4386.51515108,41.212121208,4851.69696921,3890.42424204,4462.75757531,185.454545436,42.0,42.0,?
2017-08-07 12:16:45.391373,4520.454545,4158.30302989,4174.27272686,4071.75757535,3928.54545415,482.181818134,3848.69696931,745.939393865,4297.90909048,642.909090845,4547.7575753,576.969696912,4234.03030261,3321.69696936,4370.54545411,3416.48484814,4522.51515106,2967.27272698,4238.15151473,511.030302979,4442.15151471,94.7878787784,4388.06060562,41.212121208,4846.54545406,3890.42424204,4462.75757531,185.454545436,42.0,42.0,?
2017-08-07 12:16:45.395709,4521.99999955,4158.30302989,4173.75757534,4071.75757535,3930.60606021,482.181818134,3849.72727234,745.939393865,4296.36363593,642.909090845,4547.7575753,576.969696912,4237.1212117,3321.69696936,4367.45454502,3416.48484814,4524.06060561,2967.27272698,4225.78787837,511.030302979,4436.48484804,94.7878787784,4391.66666623,41.212121208,4836.75757527,3890.42424204,4462.2424238,185.454545436,42.0,42.0,?
2017-08-07 12:16:45.403211,4517.87878743,4158.30302989,4171.18181776,4071.75757535,3925.45454506,482.181818134,3846.63636325,745.939393865,4289.15151472,642.909090845,4543.12121167,576.969696912,4237.1212117,3321.69696936,4368.99999956,3416.48484814,4523.03030258,2967.27272698,4215.48484806,511.030302979,4438.5454541,94.7878787784,4388.06060562,41.212121208,4839.84848436,3890.42424204,4460.69696925,185.454545436,42.0,42.0,?
2017-08-07 12:16:45.413027,4520.96969652,4158.30302989,4174.27272686,4071.75757535,3925.45454506,482.181818134,3847.15151477,745.939393865,4282.45454503,642.909090845,4541.06060561,576.969696912,4237.63636321,3321.69696936,4372.09090865,3416.48484814,4524.57575712,2967.27272698,4220.63636321,511.030302979,4445.2424238,94.7878787784,4390.12121168,41.212121208,4847.57575709,3890.42424204,4462.75757531,185.454545436,42.0,42.0,?
2017-08-07 12:16:45.419956,4527.66666621,4158.30302989,4178.90909049,4071.75757535,3931.12121173,482.181818134,3851.7878784,745.939393865,4284.51515109,642.909090845,4545.18181773,576.969696912,4240.21212079,3321.69696936,4367.96969653,3416.48484814,4526.12121167,2967.27272698,4231.96969655,511.030302979,4444.21212077,94.7878787784,4395.27272683,41.212121208,4846.54545406,3890.42424204,4467.39393895,185.454545436,42.0,42.0,?
2017-08-07 12:16:45.428600,4525.09090864,4158.30302989,4175.30302989,4071.75757535,3928.03030264,482.181818134,3847.66666628,745.939393865,4282.96969654,642.909090845,4541.57575712,576.969696912,4235.06060564,3321.69696936,4357.66666623,3416.48484814,4513.75757531,2967.27272698,4226.8181814,511.030302979,4438.03030259,94.7878787784,4389.09090865,41.212121208,4841.90909042,3890.42424204,4466.36363592,185.454545436,42.0,42.0,?
2017-08-07 12:16:45.436794,4515.30302985,4158.30302989,4168.09090867,4071.75757535,3915.15151476,482.181818134,3838.90909053,745.939393865,4277.81818139,642.909090845,4533.8484844,576.969696912,4222.69696927,3321.69696936,4348.90909047,3416.48484814,4496.75757531,2967.27272698,4210.33333291,511.030302979,4430.30302986,94.7878787784,4375.18181774,41.212121208,4834.69696921,3890.42424204,4455.5454541,185.454545436,42.0,42.0,?
2017-08-07 12:16:45.442251,4515.81818137,4158.30302989,4170.15151473,4071.75757535,3915.15151476,482.181818134,3839.42424204,745.939393865,4283.48484806,642.909090845,4537.454545,576.969696912,4216.51515109,3321.69696936,4348.39393896,3416.48484814,4502.42424197,2967.27272698,4208.78787837,511.030302979,4423.60606016,94.7878787784,4375.18181774,41.212121208,4827.484848,3890.42424204,4452.45454501,185.454545436,42.0,42.0,?
2017-08-07 12:16:45.453010,4526.12121167,4158.30302989,4178.39393898,4071.75757535,3929.06060567,482.181818134,3848.1818178,745.939393865,4290.69696927,642.909090845,4545.18181773,576.969696912,4222.69696927,3321.69696936,4358.69696926,3416.48484814,4518.90909046,2967.27272698,4219.60606018,511.030302979,4430.30302986,94.7878787784,4387.03030259,41.212121208,4834.69696921,3890.42424204,4464.30302986,185.454545436,42.0,42.0,?
2017-08-07 12:16:45.458857,4526.12121167,4158.30302989,4173.24242383,4071.75757535,3930.60606021,482.181818134,3849.21212083,745.939393865,4291.7272723,642.909090845,4540.03030258,576.969696912,4225.78787837,3321.69696936,4362.30302987,3416.48484814,4512.21212076,2967.27272698,4215.99999958,511.030302979,4437.51515107,94.7878787784,4382.90909047,41.212121208,4841.90909042,3890.42424204,4468.93939349,185.454545436,42.0,42.0,?
2017-08-07 12:16:45.466668,4516.8484844,4158.30302989,4163.96969655,4071.75757535,3916.18181779,482.181818134,3838.90909053,745.939393865,4286.57575715,642.909090845,4529.21212076,576.969696912,4219.60606018,3321.69696936,4354.57575714,3416.48484814,4500.36363591,2967.27272698,4204.15151473,511.030302979,4427.21212077,94.7878787784,4369.51515108,41.212121208,4831.09090861,3890.42424204,4459.15151471,185.454545436,42.0,42.0,?
2017-08-07 12:16:45.473931,4514.27272682,4158.30302989,4166.54545413,4071.75757535,3912.06060567,482.181818134,3836.84848446,745.939393865,4276.78787836,642.909090845,4524.57575712,576.969696912,4214.96969655,3321.69696936,4351.99999956,3416.48484814,4508.60606016,2967.27272698,4205.18181776,511.030302979,4424.63636319,94.7878787784,4373.12121168,41.212121208,4828.51515103,3890.42424204,4456.57575713,185.454545436,42.0,42.0,?
2017-08-07 12:16:45.481869,4517.87878743,4158.30302989,4172.72727231,4071.75757535,3922.36363597,482.181818134,3844.57575719,745.939393865,4271.12121169,642.909090845,4523.54545409,576.969696912,4218.57575715,3321.69696936,4359.72727229,3416.48484814,4515.30302985,2967.27272698,4213.424242,511.030302979,4439.57575713,94.7878787784,4384.96969653,41.212121208,4843.96969649,3890.42424204,4464.81818137,185.454545436,42.0,42.0,?
2017-08-07 12:16:45.489009,4519.93939349,4158.30302989,4172.21212079,4071.75757535,3928.03030264,482.181818134,3848.1818178,745.939393865,4273.18181775,642.909090845,4525.09090864,576.969696912,4223.7272723,3321.69696936,4362.30302987,3416.48484814,4507.57575713,2967.27272698,4221.15151473,511.030302979,4444.21212077,94.7878787784,4388.06060562,41.212121208,4844.99999952,3890.42424204,4467.90909046,185.454545436,42.0,42.0,?
2017-08-07 12:16:45.497278,4522.51515106,4158.30302989,4172.72727231,4071.75757535,3923.393939,482.181818134,3846.12121174,745.939393865,4277.30302988,642.909090845,4529.21212076,576.969696912,4223.7272723,3321.69696936,4360.24242381,3416.48484814,4504.99999955,2967.27272698,4223.7272723,511.030302979,4436.48484804,94.7878787784,4386.51515108,41.212121208,4834.1818177,3890.42424204,4465.8484844,185.454545436,42.0,42.0,?
2017-08-07 12:16:45.505694,4519.42424197,4158.30302989,4174.27272686,4071.75757535,3914.63636324,482.181818134,3843.03030265,745.939393865,4280.39393897,642.909090845,4528.18181773,576.969696912,4218.57575715,3321.69696936,4356.12121169,3416.48484814,4508.09090864,2967.27272698,4212.39393897,511.030302979,4428.75757531,94.7878787784,4382.90909047,41.212121208,4830.06060558,3890.42424204,4465.33333289,185.454545436,42.0,42.0,?
2017-08-07 12:16:45.514225,4514.78787834,4158.30302989,4170.15151473,4071.75757535,3912.57575718,482.181818134,3844.57575719,745.939393865,4281.424242,642.909090845,4527.1515147,576.969696912,4216.51515109,3321.69696936,4350.96969653,3416.48484814,4500.87878743,2967.27272698,4194.36363594,511.030302979,4421.5454541,94.7878787784,4376.72727229,41.212121208,4826.96969649,3890.42424204,4460.69696925,185.454545436,42.0,42.0,?
2017-08-07 12:16:45.531564,4511.18181773,4158.30302989,4158.8181814,4071.75757535,3912.57575718,482.181818134,3841.99999962,745.939393865,4279.87878745,642.909090845,4539.51515106,576.969696912,4227.84848443,3321.69696936,4354.57575714,3416.48484814,4508.09090864,2967.27272698,4192.30302988,511.030302979,4417.42424198,94.7878787784,4382.39393896,41.212121208,4824.39393891,3890.42424204,4455.03030258,185.454545436,42.0,42.0,?
2017-08-07 12:16:45.532707,4512.21212076,4158.30302989,4156.24242383,4071.75757535,3911.54545415,482.181818134,3839.42424204,745.939393865,4266.48484806,642.909090845,4532.30302985,576.969696912,4226.30302988,3321.69696936,4360.24242381,3416.48484814,4502.93939349,2967.27272698,4207.75757534,511.030302979,4424.12121168,94.7878787784,4382.90909047,41.212121208,4829.03030255,3890.42424204,4463.27272683,185.454545436,42.0,42.0,?
2017-08-07 12:16:45.543250,4512.21212076,4158.30302989,4156.24242383,4071.75757535,3911.54545415,482.181818134,3839.42424204,745.939393865,4266.48484806,642.909090845,4532.30302985,576.969696912,4226.30302988,3321.69696936,4360.24242381,3416.48484814,4502.93939349,2967.27272698,4207.75757534,511.030302979,4424.12121168,94.7878787784,4382.90909047,41.212121208,4829.03030255,3890.42424204,4463.27272683,185.454545436,42.0,42.0,?
2017-08-07 12:16:45.544787,4515.81818137,4158.30302989,4155.72727231,4071.75757535,3913.0909087,482.181818134,3841.4848481,745.939393865,4265.96969654,642.909090845,4529.21212076,576.969696912,4227.84848443,3321.69696936,4350.45454502,3416.48484814,4491.09090864,2967.27272698,4202.09090867,511.030302979,4429.27272683,94.7878787784,4378.78787835,41.212121208,4835.21212073,3890.42424204,4463.27272683,185.454545436,42.0,42.0,?
2017-08-07 12:16:45.558597,4513.75757531,4158.30302989,4154.69696928,4071.75757535,3906.90909052,482.181818134,3834.7878784,745.939393865,4279.87878745,642.909090845,4535.90909046,576.969696912,4232.99999958,3321.69696936,4350.96969653,3416.48484814,4495.72727228,2967.27272698,4205.18181776,511.030302979,4431.84848441,94.7878787784,4378.78787835,41.212121208,4831.60606012,3890.42424204,4459.15151471,185.454545436,42.0,42.0,?
2017-08-07 12:16:45.560643,4512.21212076,4158.30302989,4153.15151474,4071.75757535,3899.18181779,482.181818134,3830.66666628,745.939393865,4271.63636321,642.909090845,4528.69696924,576.969696912,4224.75757534,3321.69696936,4353.54545411,3416.48484814,4480.78787834,2967.27272698,4209.30302988,511.030302979,4427.72727228,94.7878787784,4371.57575714,41.212121208,4822.84848437,3890.42424204,4451.93939349,185.454545436,42.0,42.0,?
2017-08-07 12:16:45.570848,4510.1515147,4158.30302989,4153.66666625,4071.75757535,3899.18181779,482.181818134,3833.75757537,745.939393865,4279.36363594,642.909090845,4525.09090864,576.969696912,4217.54545412,3321.69696936,4355.60606017,3416.48484814,4483.36363592,2967.27272698,4201.57575716,511.030302979,4420.51515107,94.7878787784,4371.57575714,41.212121208,4821.81818134,3890.42424204,4447.30302986,185.454545436,42.0,42.0,?
2017-08-07 12:16:45.575101,4510.1515147,4158.30302989,4153.66666625,4071.75757535,3899.18181779,482.181818134,3833.75757537,745.939393865,4279.36363594,642.909090845,4538.99999955,576.969696912,4229.39393897,3321.69696936,4355.60606017,3416.48484814,4483.36363592,2967.27272698,4201.57575716,511.030302979,4422.57575713,94.7878787784,4371.57575714,41.212121208,4825.93939346,3890.42424204,4450.39393895,185.454545436,42.0,42.0,?
2017-08-07 12:16:45.584384,4504.48484803,4158.30302989,4152.63636322,4071.75757535,3896.0909087,482.181818134,3833.24242386,745.939393865,4289.15151472,642.909090845,4545.69696924,576.969696912,4237.63636321,3321.69696936,4366.42424199,3416.48484814,4490.06060561,2967.27272698,4203.1212117,511.030302979,4425.66666622,94.7878787784,4382.39393896,41.212121208,4823.36363588,3890.42424204,4453.48484804,185.454545436,42.0,42.0,?
2017-08-07 12:16:45.594304,4502.42424197,4158.30302989,4154.18181777,4071.75757535,3895.57575719,482.181818134,3833.75757537,745.939393865,4286.06060563,642.909090845,4540.54545409,576.969696912,4229.39393897,3321.69696936,4362.30302987,3416.48484814,4480.78787834,2967.27272698,4196.424242,511.030302979,4417.9393935,94.7878787784,4378.78787835,41.212121208,4814.60606012,3890.42424204,4448.33333289,185.454545436,42.0,42.0,?
2017-08-07 12:16:45.607972,4508.60606016,4158.30302989,4161.39393898,4071.75757535,3896.0909087,482.181818134,3830.66666628,745.939393865,4279.36363594,642.909090845,4538.99999955,576.969696912,4220.1212117,3321.69696936,4351.99999956,3416.48484814,4474.60606016,2967.27272698,4188.69696928,511.030302979,4411.75757532,94.7878787784,4363.84848441,41.212121208,4809.96969649,3890.42424204,4447.30302986,185.454545436,42.0,42.0,?
2017-08-07 12:16:45.612139,4513.75757531,4158.30302989,4162.42424201,4071.75757535,3896.0909087,482.181818134,3831.1818178,745.939393865,4280.39393897,642.909090845,4541.06060561,576.969696912,4220.1212117,3321.69696936,4355.60606017,3416.48484814,4474.60606016,2967.27272698,4188.69696928,511.030302979,4416.39393895,94.7878787784,4367.96969653,41.212121208,4814.09090861,3890.42424204,4452.96969652,185.454545436,42.0,42.0,?
2017-08-07 12:16:45.616501,4505.51515106,4158.30302989,4160.87878746,4071.75757535,3896.0909087,482.181818134,3834.27272689,745.939393865,4291.7272723,642.909090845,4540.54545409,576.969696912,4229.90909049,3321.69696936,4365.39393896,3416.48484814,4474.60606016,2967.27272698,4195.90909049,511.030302979,4417.42424198,94.7878787784,4384.45454502,41.212121208,4816.15151467,3890.42424204,4452.96969652,185.454545436,42.0,42.0,?
2017-08-07 12:16:45.624761,4501.39393894,4158.30302989,4168.09090867,4071.75757535,3894.03030264,482.181818134,3835.81818143,745.939393865,4295.84848442,642.909090845,4541.06060561,576.969696912,4234.03030261,3321.69696936,4366.42424199,3416.48484814,4471.51515107,2967.27272698,4202.60606019,511.030302979,4415.36363592,94.7878787784,4387.03030259,41.212121208,4813.57575709,3890.42424204,4451.93939349,185.454545436,42.0,42.0,?
2017-08-07 12:16:45.630169,4512.21212076,4158.30302989,4175.30302989,4071.75757535,3889.90909052,482.181818134,3834.27272689,745.939393865,4290.18181775,642.909090845,4544.1515147,576.969696912,4229.90909049,3321.69696936,4360.75757532,3416.48484814,4467.39393895,2967.27272698,4200.54545413,511.030302979,4421.03030259,94.7878787784,4378.27272683,41.212121208,4819.24242376,3890.42424204,4458.63636319,185.454545436,42.0,42.0,?
2017-08-07 12:16:45.638414,4517.36363591,4158.30302989,4174.78787837,4071.75757535,3888.87878749,482.181818134,3834.7878784,745.939393865,4289.66666624,642.909090845,4545.69696924,576.969696912,4229.39393897,3321.69696936,4364.87878744,3416.48484814,4469.45454501,2967.27272698,4198.99999958,511.030302979,4426.18181774,94.7878787784,4377.75757532,41.212121208,4827.484848,3890.42424204,4464.30302986,185.454545436,42.0,42.0,?
2017-08-07 12:16:45.647388,4518.90909046,4158.30302989,4175.30302989,4071.75757535,3894.54545416,482.181818134,3838.39393901,745.939393865,4295.3333329,642.909090845,4547.24242379,576.969696912,4237.1212117,3321.69696936,4370.03030259,3416.48484814,4466.87878743,2967.27272698,4201.06060564,511.030302979,4427.72727228,94.7878787784,4383.9393935,41.212121208,4828.51515103,3890.42424204,4462.2424238,193.696969678,42.0,42.0,?
2017-08-07 12:16:45.653725,4522.51515106,4158.30302989,4178.90909049,4071.75757535,3897.12121173,478.060606013,3837.36363598,745.939393865,4289.66666624,642.909090845,4545.69696924,576.969696912,4235.57575715,3321.69696936,4360.75757532,3416.48484814,4456.06060561,2967.27272698,4197.96969655,511.030302979,4433.39393895,94.7878787784,4384.96969653,41.212121208,4828.51515103,3890.42424204,4463.27272683,193.696969678,42.0,42.0,?
2017-08-07 12:16:45.660939,4520.96969652,4158.30302989,4176.84848443,4071.75757535,3893.51515113,478.060606013,3833.24242386,745.939393865,4280.39393897,642.909090845,4542.09090864,576.969696912,4229.39393897,3321.69696936,4351.99999956,3416.48484814,4449.87878743,2967.27272698,4196.93939352,511.030302979,4438.03030259,94.7878787784,4387.54545411,41.212121208,4834.1818177,3890.42424204,4465.33333289,193.696969678,42.0,42.0,?
2017-08-07 12:16:45.671194,4519.93939349,4158.30302989,4173.75757534,4071.75757535,3892.4848481,478.060606013,3832.72727234,745.939393865,4281.424242,655.272727207,4541.06060561,576.969696912,4234.03030261,3321.69696936,4356.6363632,3416.48484814,4445.2424238,2967.27272698,4201.06060564,511.030302979,4434.9393935,94.7878787784,4387.54545411,41.212121208,4833.66666618,3890.42424204,4461.21212077,193.696969678,42.0,42.0,?
2017-08-07 12:16:45.677749,4520.96969652,4158.30302989,4174.27272686,4071.75757535,3896.0909087,478.060606013,3833.24242386,745.939393865,4282.45454503,655.272727207,4541.57575712,576.969696912,4231.45454503,3321.69696936,4358.18181775,3416.48484814,4432.36363592,2967.27272698,4194.87878746,511.030302979,4430.81818138,94.7878787784,4377.75757532,41.212121208,4828.51515103,3890.42424204,4457.09090865,193.696969678,42.0,42.0,?
2017-08-07 12:16:45.685263,4516.33333288,4158.30302989,4174.78787837,4071.75757535,3895.57575719,478.060606013,3831.69696931,745.939393865,4281.424242,655.272727207,4538.99999955,576.969696912,4219.60606018,3325.81818149,4351.99999956,3416.48484814,4427.21212077,2967.27272698,4184.06060564,511.030302979,4427.72727228,94.7878787784,4376.21212077,41.212121208,4823.8787874,3890.42424204,4453.99999955,193.696969678,42.0,42.0,?
2017-08-07 12:16:45.694806,4511.69696925,4158.30302989,4176.84848443,4071.75757535,3896.0909087,478.060606013,3832.72727234,745.939393865,4283.48484806,655.272727207,4534.87878743,576.969696912,4215.99999958,3325.81818149,4349.9393935,3424.72727238,4430.30302986,2967.27272698,4183.54545413,511.030302979,4423.60606016,94.7878787784,4382.39393896,41.212121208,4820.27272679,3890.42424204,4448.8484844,193.696969678,42.0,42.0,?
2017-08-07 12:16:45.700852,4513.75757531,4158.30302989,4183.54545413,4071.75757535,3905.36363597,478.060606013,3835.81818143,745.939393865,4277.30302988,655.272727207,4529.72727227,576.969696912,4217.54545412,3325.81818149,4348.90909047,3424.72727238,4424.12121168,3070.30303,4189.21212079,511.030302979,4423.60606016,94.7878787784,4379.30302987,41.212121208,4821.81818134,3890.42424204,4449.36363592,193.696969678,42.0,42.0,?
2017-08-07 12:16:45.717641,4519.42424197,4158.30302989,4191.27272685,4071.75757535,3915.66666628,478.060606013,3835.81818143,745.939393865,4268.54545412,655.272727207,4527.1515147,576.969696912,4217.54545412,3325.81818149,4347.36363593,3424.72727238,4414.33333289,3070.30303,4192.8181814,511.030302979,4429.27272683,94.7878787784,4377.75757532,41.212121208,4830.06060558,3890.42424204,4455.03030258,193.696969678,42.0,42.0,?
2017-08-07 12:16:45.720416,4519.93939349,4158.30302989,4187.66666625,4071.75757535,3917.21212082,478.060606013,3838.90909053,745.939393865,4276.27272685,655.272727207,4528.69696924,576.969696912,4220.1212117,3325.81818149,4351.48484805,3424.72727238,4414.84848441,3070.30303,4199.5151511,511.030302979,4431.84848441,94.7878787784,4392.69696926,41.212121208,4832.63636315,3890.42424204,4454.51515107,193.696969678,42.0,42.0,?
2017-08-07 12:16:45.724932,4516.33333288,4158.30302989,4174.78787837,4071.75757535,3914.12121173,478.060606013,3846.63636325,745.939393865,4283.99999957,655.272727207,4529.72727227,576.969696912,4222.18181776,3325.81818149,4358.18181775,3424.72727238,4417.42424198,3070.30303,4203.63636322,511.030302979,4430.81818138,94.7878787784,4399.39393895,37.0909090872,4829.03030255,3890.42424204,4448.33333289,193.696969678,42.0,42.0,?
2017-08-07 12:16:45.735015,4516.8484844,4158.30302989,4168.60606019,4071.75757535,3915.66666628,478.060606013,3849.72727234,745.939393865,4274.21212078,655.272727207,4528.69696924,576.969696912,4222.18181776,3325.81818149,4359.72727229,3424.72727238,4409.18181774,3070.30303,4200.03030261,511.030302979,4432.87878744,94.7878787784,4389.09090865,37.0909090872,4832.12121164,3902.7878784,4445.75757531,193.696969678,42.0,42.0,?
2017-08-07 12:16:45.740593,4521.48484803,4158.30302989,4171.69696928,4071.75757535,3923.393939,478.060606013,3848.1818178,745.939393865,4272.66666624,655.272727207,4527.66666621,576.969696912,4222.69696927,3325.81818149,4358.69696926,3424.72727238,4402.48484804,3070.30303,4198.99999958,515.1515151,4435.45454501,94.7878787784,4388.06060562,37.0909090872,4837.7878783,3902.7878784,4455.5454541,193.696969678,42.0,42.0,?
2017-08-07 12:16:45.748032,4520.96969652,4158.30302989,4178.90909049,4071.75757535,3923.90909052,478.060606013,3847.66666628,745.939393865,4281.424242,655.272727207,4525.60606015,576.969696912,4215.48484806,3325.81818149,4357.15151472,3424.72727238,4407.12121168,3070.30303,4199.5151511,515.1515151,4431.33333289,86.5454545368,4393.21212077,37.0909090872,4833.15151467,3902.7878784,4461.21212077,193.696969678,42.0,42.0,?
2017-08-07 12:16:45.755002,4517.36363591,4158.30302989,4184.57575716,4071.75757535,3915.15151476,478.060606013,3847.66666628,745.939393865,4281.93939351,655.272727207,4526.12121167,576.969696912,4206.72727231,3325.81818149,4349.9393935,3424.72727238,4400.42424198,3070.30303,4195.39393897,515.1515151,4427.21212077,86.5454545368,4390.6363632,41.212121208,4826.45454497,3902.7878784,4453.99999955,193.696969678,42.0,42.0,?
2017-08-07 12:16:45.764716,4517.36363591,4158.30302989,4186.63636322,4071.75757535,3912.57575718,478.060606013,3845.60606022,745.939393865,4276.78787836,655.272727207,4528.69696924,576.969696912,4211.36363594,3325.81818149,4345.30302987,3424.72727238,4377.75757532,3070.30303,4195.90909049,515.1515151,4434.42424198,86.5454545368,4393.72727229,41.212121208,4834.1818177,3902.7878784,4452.45454501,193.696969678,42.0,42.0,?
2017-08-07 12:16:45.771032,4521.48484803,4158.30302989,4183.03030261,4071.75757535,3914.12121173,478.060606013,3841.4848481,745.939393865,4276.27272685,655.272727207,4529.21212076,576.969696912,4213.93939352,3325.81818149,4346.3333329,3424.72727238,4366.42424199,3070.30303,4198.99999958,515.1515151,4440.09090865,86.5454545368,4399.39393895,41.212121208,4844.484848,3902.7878784,4456.06060561,193.696969678,42.0,42.0,?
2017-08-07 12:16:45.779029,4526.12121167,4158.30302989,4182.5151511,4071.75757535,3911.03030264,478.060606013,3840.96969659,745.939393865,4279.87878745,655.272727207,4533.8484844,576.969696912,4213.424242,3325.81818149,4349.42424199,3424.72727238,4372.09090865,3070.30303,4195.90909049,515.1515151,4436.48484804,86.5454545368,4393.21212077,41.212121208,4841.90909042,3902.7878784,4453.48484804,193.696969678,42.0,42.0,?
2017-08-07 12:16:45.786544,4525.09090864,4158.30302989,4188.18181776,4071.75757535,3912.06060567,478.060606013,3847.15151477,745.939393865,4287.09090866,655.272727207,4536.42424197,576.969696912,4215.99999958,3325.81818149,4351.99999956,3424.72727238,4378.78787835,3070.30303,4192.30302988,515.1515151,4439.06060562,86.5454545368,4396.81818138,41.212121208,4843.45454497,3902.7878784,4453.48484804,193.696969678,42.0,42.0,?
2017-08-07 12:16:45.794555,4525.09090864,4158.30302989,4190.75757534,4071.75757535,3917.21212082,478.060606013,3849.21212083,745.939393865,4285.0303026,655.272727207,4530.7575753,576.969696912,4211.36363594,3325.81818149,4348.39393896,3424.72727238,4377.2424238,3070.30303,4195.90909049,515.1515151,4445.75757531,86.5454545368,4414.33333289,41.212121208,4852.21212073,3902.7878784,4461.21212077,193.696969678,42.0,42.0,?
