Timestamp,F3 Value,F3 Quality,FC5 Value,FC5 Quality,F7 Value,F7 Quality,T7 Value,T7 Quality,P7 Value,P7 Quality,O1 Value,O1 Quality,O2 Value,O2 Quality,P8 Value,P8 Quality,T8 Value,T8 Quality,F8 Value,F8 Quality,AF4 Value,AF4 Quality,FC6 Value,FC6 Quality,F4 Value,F4 Quality,AF3 Value,AF3 Quality,X Value,Y Value,Z Value
2017-08-07 12:06:34.360970,4532.30302985,0,4126.36363595,0,3875.99999961,0,3863.63636325,688.242424174,4257.7272723,0,4448.33333289,0,4172.21212079,0,4309.75757533,0,4719.30302983,0,4193.84848443,0,4415.36363592,0,4201.57575716,0,4823.8787874,0,4474.60606016,0,42.0,42.0,?
2017-08-07 12:06:34.364302,4536.42424197,0,4212.39393897,0,3888.87878749,0,3928.54545415,688.242424174,4266.99999957,0,4444.21212077,0,4156.24242383,0,4315.42424199,0,4564.24242379,0,4220.63636321,0,4397.84848441,0,4220.1212117,0,4793.48484801,0,4434.9393935,0,42.0,42.0,?
2017-08-07 12:06:34.367336,4534.87878743,0,4208.27272685,0,3887.84848446,0,3928.54545415,688.242424174,4264.93939351,0,4440.60606016,0,4164.48484807,0,4324.18181775,0,4574.54545409,0,4227.84848443,0,4401.45454501,0,4222.18181776,0,4800.1818177,0,4435.45454501,0,42.0,42.0,?
2017-08-07 12:06:34.370993,4532.30302985,0,4214.96969655,0,3890.93939355,0,3929.06060567,688.242424174,4265.96969654,0,4435.96969653,0,4159.33333292,0,4326.75757532,0,4576.60606015,0,4223.7272723,0,4397.84848441,0,4216.51515109,0,4801.72727225,0,4446.27272683,0,42.0,42.0,?
2017-08-07 12:06:34.382796,4535.90909046,0,4218.57575715,0,3891.96969658,0,3929.57575718,688.242424174,4265.45454503,0,4434.42424198,0,4144.39393898,0,4316.96969654,0,4571.96969651,0,4224.24242382,0,4399.90909047,0,4216.51515109,0,4801.21212073,0,4450.90909046,0,42.0,42.0,?
2017-08-07 12:06:34.387858,4545.18181773,0,4217.54545412,0,3892.4848481,0,3930.0909087,688.242424174,4265.45454503,0,4437.51515107,0,4143.87878746,0,4316.96969654,0,4579.18181772,0,4237.63636321,0,4412.78787835,0,4222.18181776,0,4806.8787874,0,4449.87878743,0,42.0,42.0,?
2017-08-07 12:06:34.399208,4545.69696924,3725.5757572,4220.63636321,0,3896.60606022,0,3931.12121173,688.242424174,4265.45454503,0,4438.5454541,0,4154.69696928,0,4324.69696926,0,4591.54545409,0,4237.63636321,0,4416.39393895,0,4221.15151473,0,4810.484848,0,4450.39393895,0,42.0,42.0,?
2017-08-07 12:06:34.403516,4537.454545,3725.5757572,4218.57575715,4162.42424201,3893.51515113,0,3930.60606021,688.242424174,4266.48484806,0,4437.51515107,0,4157.78787837,0,4324.18181775,0,4593.09090863,0,4224.75757534,0,4405.06060562,0,4213.93939352,0,4804.81818134,0,4449.87878743,0,42.0,42.0,?
2017-08-07 12:06:34.406776,4533.8484844,3725.5757572,4214.96969655,4162.42424201,3884.75757537,0,3926.99999961,688.242424174,4268.0303026,0,4441.12121168,0,4157.78787837,0,4320.57575714,0,4593.09090863,0,4226.30302988,0,4404.03030259,0,4213.424242,0,4802.24242376,0,4444.72727228,70.0606060536,42.0,42.0,?
2017-08-07 12:06:34.411198,4537.96969652,3725.5757572,4220.1212117,4162.42424201,3887.84848446,519.272727221,3925.96969658,688.242424174,4264.424242,0,4441.63636319,0,4155.2121208,0,4316.96969654,0,4603.39393893,0,4240.21212079,0,4415.36363592,0,4223.7272723,0,4808.42424194,0,4445.75757531,70.0606060536,42.0,42.0,?
2017-08-07 12:06:34.413963,4541.57575712,3725.5757572,4225.78787837,4162.42424201,3894.54545416,519.272727221,3928.54545415,696.484848415,4257.21212079,0,4436.99999956,0,4156.75757534,0,4319.0303026,0,4610.09090863,0,4240.21212079,0,4411.2424238,0,4227.33333291,0,4810.484848,0,4450.90909046,70.0606060536,42.0,42.0,?
2017-08-07 12:06:34.417564,4535.39393894,3725.5757572,4223.21212079,4162.42424201,3889.90909052,519.272727221,3930.0909087,696.484848415,4255.66666624,519.272727221,4439.57575713,0,4168.60606019,0,4325.21212078,0,4605.45454499,0,4221.15151473,0,4396.30302986,0,4213.93939352,0,4802.75757528,0,4441.12121168,70.0606060536,42.0,42.0,?
2017-08-07 12:06:34.422030,4528.69696924,3725.5757572,4220.63636321,4162.42424201,3879.60606022,519.272727221,3927.51515112,696.484848415,4257.21212079,519.272727221,4444.72727228,181.333333315,4168.60606019,0,4318.51515108,0,4602.87878742,0,4206.72727231,0,4393.72727229,0,4203.1212117,0,4797.60606013,0,4424.63636319,70.0606060536,42.0,42.0,?
2017-08-07 12:06:34.425042,4528.18181773,3725.5757572,4222.18181776,4162.42424201,3874.96969658,519.272727221,3919.7878784,696.484848415,4252.06060564,519.272727221,4434.9393935,181.333333315,4152.63636322,3383.51515118,4305.12121169,0,4606.48484802,0,4214.96969655,0,4400.42424198,0,4207.75757534,0,4800.69696922,0,4424.12121168,70.0606060536,42.0,42.0,?
2017-08-07 12:06:34.428052,4527.1515147,3725.5757572,4220.63636321,4162.42424201,3869.81818143,519.272727221,3914.63636324,696.484848415,4253.60606018,519.272727221,4426.18181774,181.333333315,4149.54545413,3383.51515118,4306.15151472,3049.69696939,4612.66666621,0,4223.7272723,0,4397.84848441,0,4209.8181814,0,4796.5757571,0,4426.18181774,70.0606060536,42.0,42.0,?
2017-08-07 12:06:34.431463,4522.51515106,3725.5757572,4220.1212117,4162.42424201,3866.72727234,519.272727221,3912.57575718,696.484848415,4260.81818139,519.272727221,4434.9393935,181.333333315,4159.33333292,3383.51515118,4316.45454502,3049.69696939,4618.33333287,3202.18181786,4215.99999958,0,4388.57575714,0,4203.1212117,0,4787.30302982,0,4420.51515107,70.0606060536,42.0,42.0,?
2017-08-07 12:06:34.434638,4526.12121167,3725.5757572,4225.78787837,4162.42424201,3874.45454507,519.272727221,3912.57575718,696.484848415,4257.21212079,519.272727221,4441.12121168,181.333333315,4161.39393898,3383.51515118,4320.06060563,3049.69696939,4623.48484802,3202.18181786,4212.90909049,482.181818134,4393.72727229,0,4207.24242382,0,4791.42424195,0,4424.12121168,70.0606060536,42.0,42.0,?
2017-08-07 12:06:34.439127,4539.51515106,3725.5757572,4235.06060564,4162.42424201,3883.72727234,519.272727221,3922.87878749,696.484848415,4256.18181776,519.272727221,4434.42424198,181.333333315,4154.69696928,3383.51515118,4317.99999957,3049.69696939,4632.75757529,3202.18181786,4227.33333291,482.181818134,4413.81818138,4154.18181777,4219.09090867,0,4806.36363588,0,4434.42424198,70.0606060536,42.0,42.0,?
2017-08-07 12:06:34.441987,4550.33333288,3725.5757572,4247.424242,4162.42424201,3889.393939,519.272727221,3928.54545415,696.484848415,4259.78787836,519.272727221,4425.15151471,181.333333315,4156.75757534,3383.51515118,4323.15151472,3049.69696939,4649.24242378,3202.18181786,4241.75757533,482.181818134,4425.15151471,4154.18181777,4229.39393897,24.7272727248,4818.21212073,0,4445.2424238,70.0606060536,42.0,42.0,?
2017-08-07 12:06:34.444989,4549.81818136,3725.5757572,4251.03030261,4162.42424201,3892.99999961,519.272727221,3920.81818143,696.484848415,4254.63636321,519.272727221,4424.12121168,181.333333315,4171.18181776,3383.51515118,4331.39393896,3049.69696939,4659.03030256,3202.18181786,4245.87878745,482.181818134,4418.96969653,4154.18181777,4234.03030261,24.7272727248,4820.27272679,3263.99999967,4448.8484844,70.0606060536,42.0,42.0,?
2017-08-07 12:06:34.451582,4543.12121167,3725.5757572,4244.33333291,4162.42424201,3887.33333294,519.272727221,3919.7878784,696.484848415,4246.90909048,519.272727221,4427.21212077,181.333333315,4178.39393898,3383.51515118,4328.30302987,3049.69696939,4656.9696965,3202.18181786,4235.06060564,486.303030254,4412.78787835,4154.18181777,4225.78787837,24.7272727248,4816.66666619,3263.99999967,4440.60606016,70.0606060536,42.0,42.0,?
2017-08-07 12:06:34.458992,4544.66666621,3725.5757572,4245.36363594,4162.42424201,3881.15151476,519.272727221,3924.93939355,696.484848415,4246.90909048,519.272727221,4425.66666622,181.333333315,4166.54545413,3383.51515118,4317.99999957,3049.69696939,4655.42424196,3202.18181786,4223.21212079,486.303030254,4412.78787835,4166.54545413,4214.96969655,24.7272727248,4812.54545406,3263.99999967,4433.39393895,70.0606060536,42.0,42.0,?
2017-08-07 12:06:34.470940,4542.60606015,3725.5757572,4253.60606018,4162.42424201,3887.84848446,519.272727221,3922.36363597,696.484848415,4256.18181776,519.272727221,4433.90909047,181.333333315,4158.8181814,3383.51515118,4316.96969654,3049.69696939,4663.6666662,3202.18181786,4223.21212079,486.303030254,4401.96969653,4166.54545413,4219.60606018,24.7272727248,4803.78787831,3263.99999967,4431.33333289,70.0606060536,42.0,42.0,?
2017-08-07 12:06:34.476429,4530.7575753,3725.5757572,4246.90909048,4162.42424201,3887.84848446,519.272727221,3922.36363597,696.484848415,4257.7272723,519.272727221,4449.36363592,181.333333315,4158.8181814,3383.51515118,4316.96969654,3049.69696939,4668.81818135,3202.18181786,4223.21212079,486.303030254,4401.96969653,4166.54545413,4206.72727231,24.7272727248,4803.78787831,3263.99999967,4425.66666622,70.0606060536,42.0,42.0,?
2017-08-07 12:06:34.484575,4530.7575753,3725.5757572,4246.90909048,4162.42424201,3877.54545416,519.272727221,3918.75757537,696.484848415,4257.7272723,519.272727221,4452.45454501,181.333333315,4171.18181776,3383.51515118,4318.51515108,3049.69696939,4668.81818135,3202.18181786,4211.87878746,486.303030254,4392.18181774,4166.54545413,4206.72727231,24.7272727248,4795.03030255,3263.99999967,4419.99999956,70.0606060536,42.0,42.0,?
2017-08-07 12:06:34.490547,4527.66666621,3725.5757572,4248.96969654,4162.42424201,3871.36363598,519.272727221,3911.54545415,696.484848415,4257.7272723,519.272727221,4447.30302986,181.333333315,4173.24242383,3383.51515118,4322.6363632,3049.69696939,4661.09090862,3202.18181786,4207.24242382,486.303030254,4388.06060562,4166.54545413,4198.99999958,24.7272727248,4791.93939346,3263.99999967,4417.9393935,70.0606060536,42.0,42.0,?
2017-08-07 12:06:34.508187,4534.36363591,3725.5757572,4251.54545412,4162.42424201,3878.57575719,519.272727221,3911.03030264,696.484848415,4262.36363594,519.272727221,4441.63636319,181.333333315,4164.48484807,3383.51515118,4325.72727229,3049.69696939,4654.39393893,3202.18181786,4217.54545412,486.303030254,4391.66666623,4166.54545413,4208.78787837,24.7272727248,4797.60606013,3263.99999967,4422.57575713,70.0606060536,42.0,42.0,?
2017-08-07 12:06:34.510821,4537.454545,3725.5757572,4256.18181776,4162.42424201,3886.30302991,519.272727221,3917.21212082,696.484848415,4249.99999958,519.272727221,4433.90909047,181.333333315,4165.5151511,3383.51515118,4330.36363593,3049.69696939,4662.63636317,3202.18181786,4228.87878746,486.303030254,4400.42424198,4166.54545413,4222.18181776,24.7272727248,4804.30302982,3263.99999967,4431.84848441,70.0606060536,42.0,42.0,?
2017-08-07 12:06:34.513689,4536.42424197,3725.5757572,4261.33333291,4162.42424201,3881.15151476,519.272727221,3913.60606021,696.484848415,4252.06060564,519.272727221,4431.33333289,181.333333315,4176.84848443,3383.51515118,4334.48484805,3049.69696939,4673.45454499,3202.18181786,4229.39393897,486.303030254,4405.06060562,4166.54545413,4221.15151473,24.7272727248,4807.39393891,3263.99999967,4432.36363592,70.0606060536,42.0,42.0,?
2017-08-07 12:06:34.526061,4539.51515106,3725.5757572,4258.75757533,4162.42424201,3880.12121173,519.272727221,3912.06060567,696.484848415,4252.06060564,519.272727221,4436.99999956,181.333333315,4180.96969655,3383.51515118,4339.12121169,3049.69696939,4673.9696965,3202.18181786,4230.93939352,486.303030254,4409.69696926,4166.54545413,4219.09090867,24.7272727248,4808.93939346,3263.99999967,4430.30302986,70.0606060536,42.0,42.0,?
2017-08-07 12:06:34.529417,4542.60606015,3725.5757572,4253.60606018,4162.42424201,3886.30302991,519.272727221,3919.7878784,696.484848415,4259.27272685,519.272727221,4434.42424198,181.333333315,4168.60606019,3383.51515118,4334.48484805,3049.69696939,4673.9696965,3202.18181786,4234.54545412,486.303030254,4408.66666623,4166.54545413,4221.15151473,24.7272727248,4805.84848437,3263.99999967,4433.39393895,70.0606060536,42.0,42.0,?
2017-08-07 12:06:34.536995,4533.33333288,3725.5757572,4251.03030261,4162.42424201,3883.21212082,519.272727221,3921.84848446,696.484848415,4257.21212079,519.272727221,4428.75757531,181.333333315,4151.60606019,3383.51515118,4315.93939351,3049.69696939,4672.42424196,3202.18181786,4223.21212079,486.303030254,4392.18181774,4166.54545413,4209.8181814,24.7272727248,4792.45454498,3263.99999967,4422.06060562,70.0606060536,42.0,42.0,?
2017-08-07 12:06:34.548139,4525.60606015,3725.5757572,4248.45454503,4162.42424201,3877.03030264,519.272727221,3914.12121173,696.484848415,4252.57575715,519.272727221,4438.5454541,181.333333315,4152.12121171,3383.51515118,4310.78787836,3049.69696939,4672.42424196,3202.18181786,4210.33333291,486.303030254,4387.03030259,4166.54545413,4198.99999958,24.7272727248,4788.84848437,3263.99999967,4412.27272683,70.0606060536,42.0,42.0,?
2017-08-07 12:06:34.553493,4532.81818136,3725.5757572,4248.96969654,4162.42424201,3879.60606022,519.272727221,3912.06060567,696.484848415,4256.18181776,519.272727221,4450.90909046,181.333333315,4161.90909049,3383.51515118,4322.6363632,3049.69696939,4680.15151468,3202.18181786,4216.51515109,486.303030254,4399.39393895,4166.54545413,4206.72727231,24.7272727248,4801.72727225,3263.99999967,4426.69696925,70.0606060536,42.0,42.0,?
2017-08-07 12:06:34.562171,4535.39393894,3725.5757572,4252.06060564,4162.42424201,3877.54545416,519.272727221,3916.69696931,696.484848415,4266.48484806,519.272727221,4448.33333289,181.333333315,4159.33333292,3383.51515118,4321.60606017,3049.69696939,4684.2727268,3202.18181786,4215.99999958,486.303030254,4391.66666623,4166.54545413,4205.69696928,24.7272727248,4798.12121164,3263.99999967,4435.96969653,70.0606060536,42.0,42.0,?
2017-08-07 12:06:34.568883,4526.63636318,3725.5757572,4250.51515109,4162.42424201,3871.36363598,519.272727221,3914.12121173,696.484848415,4267.51515109,519.272727221,4446.27272683,181.333333315,4156.75757534,3383.51515118,4315.42424199,3049.69696939,4681.69696923,3202.18181786,4199.5151511,486.303030254,4371.57575714,4166.54545413,4190.24242382,24.7272727248,4781.12121164,3263.99999967,4423.60606016,70.0606060536,42.0,42.0,?
2017-08-07 12:06:34.577854,4526.63636318,3725.5757572,4253.60606018,4162.42424201,3872.39393901,519.272727221,3912.06060567,696.484848415,4266.48484806,519.272727221,4452.96969652,181.333333315,4171.69696928,3383.51515118,4329.84848442,3049.69696939,4691.48484802,3202.18181786,4205.69696928,486.303030254,4382.39393896,4166.54545413,4195.39393897,24.7272727248,4790.90909043,3263.99999967,4425.66666622,70.0606060536,42.0,42.0,?
2017-08-07 12:06:34.585267,4534.87878743,3725.5757572,4264.424242,4162.42424201,3870.84848446,519.272727221,3913.0909087,696.484848415,4269.57575715,519.272727221,4449.36363592,181.333333315,4181.99999958,3383.51515118,4340.66666623,3049.69696939,4702.81818135,3202.18181786,4222.69696927,486.303030254,4403.51515107,4166.54545413,4211.36363594,24.7272727248,4811.51515103,3263.99999967,4445.75757531,70.0606060536,42.0,42.0,?
2017-08-07 12:06:34.592623,4534.36363591,3725.5757572,4269.06060563,4162.42424201,3867.75757537,519.272727221,3909.99999961,696.484848415,4263.39393897,519.272727221,4438.5454541,181.333333315,4164.99999958,3383.51515118,4328.81818139,3049.69696939,4696.12121165,3202.18181786,4210.84848443,486.303030254,4394.2424238,4166.54545413,4203.1212117,24.7272727248,4804.81818134,3263.99999967,4450.90909046,70.0606060536,42.0,42.0,?
2017-08-07 12:06:34.600029,4523.03030258,3725.5757572,4264.424242,4162.42424201,3868.27272689,519.272727221,3909.48484809,696.484848415,4258.75757533,519.272727221,4441.63636319,181.333333315,4153.15151474,3383.51515118,4323.15151472,3049.69696939,4694.57575711,3202.18181786,4195.39393897,486.303030254,4372.60606017,4166.54545413,4187.15151473,24.7272727248,4784.21212073,3263.99999967,4439.06060562,70.0606060536,42.0,42.0,?
2017-08-07 12:06:34.607874,4516.8484844,3725.5757572,4263.39393897,4162.42424201,3866.21212083,519.272727221,3912.06060567,696.484848415,4266.48484806,519.272727221,4447.81818137,181.333333315,4166.54545413,3383.51515118,4330.36363593,3049.69696939,4705.90909044,3202.18181786,4204.66666625,486.303030254,4373.6363632,4166.54545413,4196.424242,24.7272727248,4784.72727225,3263.99999967,4431.33333289,70.0606060536,42.0,42.0,?
2017-08-07 12:06:34.618118,4526.12121167,3725.5757572,4270.09090866,4162.42424201,3864.66666628,519.272727221,3913.0909087,696.484848415,4269.06060563,519.272727221,4444.72727228,181.333333315,4172.72727231,3383.51515118,4327.78787836,3049.69696939,4706.93939347,3202.18181786,4219.09090867,486.303030254,4398.36363592,4166.54545413,4213.93939352,24.7272727248,4806.8787874,3263.99999967,4441.12121168,70.0606060536,42.0,42.0,?
2017-08-07 12:06:34.623095,4540.03030258,3725.5757572,4283.99999957,4162.42424201,3874.96969658,519.272727221,3914.63636324,696.484848415,4260.81818139,519.272727221,4439.57575713,181.333333315,4158.8181814,3383.51515118,4315.93939351,3049.69696939,4697.6666662,3202.18181786,4224.24242382,486.303030254,4414.33333289,4166.54545413,4212.90909049,24.7272727248,4820.27272679,3263.99999967,4462.2424238,70.0606060536,42.0,42.0,?
2017-08-07 12:06:34.631187,4546.21212076,3725.5757572,4297.39393896,4162.42424201,3883.72727234,519.272727221,3916.69696931,696.484848415,4253.60606018,519.272727221,4437.51515107,181.333333315,4149.54545413,3383.51515118,4309.75757533,3049.69696939,4694.06060559,3202.18181786,4218.06060564,486.303030254,4404.54545411,4166.54545413,4202.60606019,24.7272727248,4814.09090861,3263.99999967,4467.39393895,70.0606060536,42.0,42.0,?
2017-08-07 12:06:34.642155,4542.60606015,3725.5757572,4294.81818139,4162.42424201,3878.06060567,519.272727221,3916.18181779,696.484848415,4257.7272723,519.272727221,4446.27272683,181.333333315,4159.33333292,3383.51515118,4317.48484805,3049.69696939,4699.21212074,3202.18181786,4206.21212079,486.303030254,4391.66666623,4166.54545413,4198.48484806,24.7272727248,4807.90909043,3263.99999967,4450.39393895,70.0606060536,42.0,42.0,?
2017-08-07 12:06:34.646482,4535.39393894,3725.5757572,4288.12121169,4162.42424201,3868.27272689,519.272727221,3913.60606021,696.484848415,4273.69696927,519.272727221,4459.66666622,181.333333315,4178.90909049,3383.51515118,4333.45454502,3049.69696939,4708.99999953,3202.18181786,4211.87878746,486.303030254,4397.33333289,4166.54545413,4204.66666625,24.7272727248,4813.06060558,3263.99999967,4445.75757531,70.0606060536,42.0,42.0,?
2017-08-07 12:06:34.654799,4536.93939349,3725.5757572,4297.90909048,4162.42424201,3873.42424204,519.272727221,3914.12121173,696.484848415,4282.96969654,519.272727221,4459.66666622,181.333333315,4190.75757534,3383.51515118,4341.69696926,3049.69696939,4714.15151468,3202.18181786,4232.48484806,486.303030254,4413.81818138,4166.54545413,4218.06060564,24.7272727248,4823.36363588,3263.99999967,4462.75757531,70.0606060536,42.0,42.0,?
2017-08-07 12:06:34.663531,4543.63636318,3725.5757572,4310.27272684,4162.42424201,3886.30302991,519.272727221,3914.63636324,696.484848415,4268.0303026,519.272727221,4445.2424238,181.333333315,4182.5151511,3383.51515118,4337.57575714,3049.69696939,4705.90909044,3202.18181786,4235.57575715,486.303030254,4416.90909047,4166.54545413,4224.75757534,24.7272727248,4823.36363588,3263.99999967,4473.06060561,70.0606060536,42.0,42.0,?
2017-08-07 12:06:34.674219,4538.99999955,3725.5757572,4304.60606018,4162.42424201,3880.12121173,519.272727221,3911.54545415,696.484848415,4254.63636321,519.272727221,4439.06060562,181.333333315,4175.30302989,3383.51515118,4332.42424199,3049.69696939,4693.03030256,3202.18181786,4220.1212117,486.303030254,4400.9393935,4166.54545413,4215.48484806,24.7272727248,4814.60606012,3263.99999967,4459.66666622,70.0606060536,42.0,42.0,?
2017-08-07 12:06:34.678994,4528.69696924,3725.5757572,4294.30302987,4162.42424201,3864.15151477,519.272727221,3908.96969658,696.484848415,4261.84848442,519.272727221,4443.18181774,181.333333315,4185.60606019,3383.51515118,4336.54545411,3049.69696939,4679.12121165,3202.18181786,4206.72727231,486.303030254,4390.12121168,4166.54545413,4203.63636322,24.7272727248,4809.45454497,3263.99999967,4441.12121168,70.0606060536,42.0,42.0,?
2017-08-07 12:06:34.688415,4526.12121167,3725.5757572,4294.81818139,4162.42424201,3860.54545416,519.272727221,3910.51515112,696.484848415,4269.06060563,519.272727221,4448.33333289,181.333333315,4189.72727231,3383.51515118,4344.27272684,3049.69696939,4674.48484802,3202.18181786,4205.69696928,486.303030254,4397.33333289,4166.54545413,4204.15151473,24.7272727248,4812.54545406,3263.99999967,4436.99999956,70.0606060536,42.0,42.0,?
2017-08-07 12:06:34.693883,4533.8484844,3725.5757572,4306.15151472,4162.42424201,3865.69696931,519.272727221,3912.57575718,696.484848415,4266.48484806,519.272727221,4448.8484844,181.333333315,4177.36363595,3383.51515118,4338.60606017,3049.69696939,4677.06060559,3202.18181786,4212.90909049,486.303030254,4405.57575714,4166.54545413,4209.8181814,24.7272727248,4815.12121164,3263.99999967,4449.87878743,70.0606060536,42.0,42.0,?
2017-08-07 12:06:34.703061,4540.54545409,3725.5757572,4315.93939351,4162.42424201,3869.81818143,519.272727221,3911.54545415,696.484848415,4263.90909048,519.272727221,4444.21212077,181.333333315,4169.1212117,3383.51515118,4319.54545411,3049.69696939,4673.9696965,3202.18181786,4213.93939352,486.303030254,4400.9393935,4166.54545413,4208.78787837,24.7272727248,4812.03030255,3263.99999967,4460.18181774,70.0606060536,42.0,42.0,?
2017-08-07 12:06:34.709280,4534.36363591,3725.5757572,4311.30302987,4162.42424201,3870.33333295,519.272727221,3911.54545415,696.484848415,4262.36363594,519.272727221,4442.66666622,181.333333315,4173.24242383,3383.51515118,4319.0303026,3049.69696939,4673.9696965,3202.18181786,4204.66666625,486.303030254,4393.21212077,4166.54545413,4202.60606019,24.7272727248,4806.36363588,3263.99999967,4448.8484844,70.0606060536,42.0,42.0,?
2017-08-07 12:06:34.716973,4518.90909046,3725.5757572,4297.90909048,4162.42424201,3864.15151477,519.272727221,3913.0909087,696.484848415,4267.51515109,519.272727221,4450.90909046,181.333333315,4175.30302989,3383.51515118,4337.06060563,3049.69696939,4682.21212074,3202.18181786,4201.06060564,486.303030254,4387.03030259,4166.54545413,4201.57575716,24.7272727248,4801.72727225,3263.99999967,4431.84848441,70.0606060536,42.0,42.0,?
2017-08-07 12:06:34.725911,4510.66666622,3725.5757572,4294.30302987,4162.42424201,3862.60606022,519.272727221,3913.60606021,696.484848415,4270.60606018,519.272727221,4451.93939349,181.333333315,4165.5151511,3383.51515118,4334.99999957,3049.69696939,4684.78787832,3202.18181786,4208.27272685,486.303030254,4384.45454502,4166.54545413,4203.63636322,24.7272727248,4796.5757571,3263.99999967,4428.2424238,70.0606060536,42.0,42.0,?
2017-08-07 12:06:34.732658,4516.33333288,3725.5757572,4304.09090866,4162.42424201,3871.87878749,519.272727221,3913.0909087,696.484848415,4258.24242382,519.272727221,4438.03030259,181.333333315,4153.15151474,3383.51515118,4313.87878745,3049.69696939,4682.72727226,3202.18181786,4213.424242,486.303030254,4385.48484805,4166.54545413,4203.63636322,24.7272727248,4793.48484801,3263.99999967,4432.36363592,70.0606060536,42.0,42.0,?
2017-08-07 12:06:34.742675,4525.09090864,3725.5757572,4313.87878745,4162.42424201,3874.45454507,519.272727221,3911.03030264,696.484848415,4248.96969654,519.272727221,4431.33333289,181.333333315,4154.18181777,3383.51515118,4308.21212078,3049.69696939,4682.72727226,3202.18181786,4209.30302988,486.303030254,4387.54545411,4166.54545413,4201.06060564,24.7272727248,4797.60606013,3263.99999967,4437.51515107,70.0606060536,42.0,42.0,?
2017-08-07 12:06:34.748379,4528.18181773,3725.5757572,4311.81818139,4162.42424201,3871.36363598,519.272727221,3908.96969658,696.484848415,4254.1212117,519.272727221,4441.63636319,181.333333315,4169.63636322,3383.51515118,4321.09090866,3049.69696939,4678.60606014,3202.18181786,4206.72727231,486.303030254,4392.18181774,4166.54545413,4200.54545413,24.7272727248,4806.36363588,3263.99999967,4445.2424238,70.0606060536,42.0,42.0,?
2017-08-07 12:06:34.756355,4531.78787833,3725.5757572,4307.69696927,4162.42424201,3869.81818143,519.272727221,3908.96969658,696.484848415,4255.66666624,519.272727221,4444.21212077,181.333333315,4181.48484807,3383.51515118,4330.87878745,3049.69696939,4681.18181771,3202.18181786,4215.99999958,486.303030254,4401.96969653,4166.54545413,4207.24242382,24.7272727248,4813.57575709,3263.99999967,4448.8484844,70.0606060536,42.0,42.0,?
2017-08-07 12:06:34.765694,4534.87878743,3725.5757572,4313.87878745,4162.42424201,3869.30302992,519.272727221,3911.03030264,696.484848415,4249.99999958,519.272727221,4429.27272683,181.333333315,4175.8181814,3383.51515118,4325.72727229,3049.69696939,4687.36363589,3202.18181786,4225.78787837,486.303030254,4409.69696926,4166.54545413,4213.424242,24.7272727248,4817.1818177,3263.99999967,4447.30302986,70.0606060536,42.0,42.0,?
2017-08-07 12:06:34.776036,4534.87878743,3725.5757572,4316.96969654,4162.42424201,3874.96969658,519.272727221,3911.54545415,696.484848415,4250.51515109,519.272727221,4419.48484804,181.333333315,4166.03030261,3383.51515118,4316.45454502,3049.69696939,4682.72727226,3202.18181786,4223.21212079,486.303030254,4409.18181774,4166.54545413,4209.30302988,24.7272727248,4813.57575709,3263.99999967,4449.36363592,70.0606060536,42.0,42.0,?
2017-08-07 12:06:34.780257,4532.30302985,3725.5757572,4311.81818139,4162.42424201,3877.54545416,519.272727221,3908.96969658,696.484848415,4255.15151473,519.272727221,4432.36363592,181.333333315,4169.63636322,3383.51515118,4321.09090866,3049.69696939,4678.60606014,3202.18181786,4212.90909049,486.303030254,4400.42424198,4166.54545413,4203.1212117,24.7272727248,4805.84848437,3263.99999967,4452.96969652,70.0606060536,42.0,42.0,?
2017-08-07 12:06:34.790453,4531.78787833,3725.5757572,4314.90909048,4162.42424201,3875.4848481,519.272727221,3908.45454506,696.484848415,4254.63636321,519.272727221,4444.21212077,181.333333315,4175.30302989,3383.51515118,4328.81818139,3049.69696939,4679.63636317,3202.18181786,4203.1212117,486.303030254,4392.69696926,4166.54545413,4202.09090867,24.7272727248,4802.75757528,3263.99999967,4451.93939349,70.0606060536,42.0,42.0,?
2017-08-07 12:06:34.795813,4529.72727227,3725.5757572,4312.84848442,4162.42424201,3872.39393901,519.272727221,3906.393939,696.484848415,4253.60606018,519.272727221,4444.72727228,181.333333315,4176.33333292,3383.51515118,4327.78787836,3049.69696939,4680.6666662,3202.18181786,4197.45454503,486.303030254,4393.21212077,4166.54545413,4202.60606019,24.7272727248,4806.8787874,3263.99999967,4442.15151471,70.0606060536,42.0,42.0,?
2017-08-07 12:06:34.804547,4524.06060561,3725.5757572,4299.45454502,4162.42424201,3868.7878784,519.272727221,3903.81818143,696.484848415,4261.84848442,519.272727221,4449.87878743,181.333333315,4183.54545413,3383.51515118,4329.3333329,3049.69696939,4685.81818135,3202.18181786,4203.63636322,486.303030254,4396.81818138,4166.54545413,4203.63636322,24.7272727248,4809.96969649,3263.99999967,4432.36363592,70.0606060536,42.0,42.0,?
2017-08-07 12:06:34.811985,4521.48484803,3725.5757572,4295.84848442,4162.42424201,3863.63636325,519.272727221,3908.96969658,696.484848415,4272.15151472,519.272727221,4457.09090865,181.333333315,4196.93939352,3383.51515118,4341.69696926,3049.69696939,4693.54545408,3202.18181786,4213.93939352,486.303030254,4394.2424238,4166.54545413,4209.30302988,24.7272727248,4807.39393891,3263.99999967,4432.87878744,70.0606060536,42.0,42.0,?
2017-08-07 12:06:34.818402,4523.03030258,3725.5757572,4300.48484805,4162.42424201,3861.57575719,519.272727221,3907.42424203,696.484848415,4269.06060563,519.272727221,4452.96969652,181.333333315,4202.60606019,3383.51515118,4349.42424199,3049.69696939,4690.45454499,3202.18181786,4208.78787837,486.303030254,4382.90909047,4166.54545413,4205.18181776,24.7272727248,4797.09090861,3263.99999967,4426.69696925,70.0606060536,42.0,42.0,?
2017-08-07 12:06:34.826268,4519.42424197,3725.5757572,4301.51515109,4162.42424201,3857.96969658,519.272727221,3897.63636325,696.484848415,4261.84848442,519.272727221,4447.81818137,181.333333315,4195.90909049,3383.51515118,4341.69696926,3049.69696939,4685.30302983,3202.18181786,4190.75757534,486.303030254,4371.06060562,4166.54545413,4191.27272685,24.7272727248,4785.75757528,3263.99999967,4412.27272683,70.0606060536,42.0,42.0,?
2017-08-07 12:06:34.834954,4512.72727228,3725.5757572,4298.93939351,4162.42424201,3855.90909052,519.272727221,3894.03030264,696.484848415,4264.424242,519.272727221,4451.93939349,181.333333315,4188.69696928,3383.51515118,4331.90909048,3049.69696939,4685.81818135,3202.18181786,4189.21212079,486.303030254,4370.54545411,4166.54545413,4190.75757534,24.7272727248,4787.30302982,3263.99999967,4414.33333289,70.0606060536,42.0,42.0,?
2017-08-07 12:06:34.842526,4510.1515147,3729.69696932,4298.42424199,4162.42424201,3862.0909087,519.272727221,3899.18181779,696.484848415,4267.51515109,519.272727221,4453.48484804,181.333333315,4192.8181814,3383.51515118,4334.48484805,3049.69696939,4683.75757529,3202.18181786,4204.15151473,486.303030254,4378.78787835,4166.54545413,4203.63636322,24.7272727248,4795.54545407,3263.99999967,4424.63636319,70.0606060536,42.0,42.0,?
2017-08-07 12:06:34.850872,4516.33333288,3729.69696932,4304.60606018,4166.54545413,3866.21212083,519.272727221,3904.84848446,696.484848415,4266.99999957,519.272727221,4450.39393895,181.333333315,4194.87878746,3383.51515118,4341.18181775,3049.69696939,4681.18181771,3202.18181786,4208.27272685,486.303030254,4387.03030259,4166.54545413,4209.8181814,24.7272727248,4799.15151467,3263.99999967,4427.21212077,70.0606060536,42.0,42.0,?
2017-08-07 12:06:34.858426,4523.03030258,3729.69696932,4312.84848442,4166.54545413,3865.1818178,519.272727221,3903.30302991,696.484848415,4264.93939351,519.272727221,4445.2424238,181.333333315,4176.84848443,3383.51515118,4336.0303026,3049.69696939,4678.60606014,3202.18181786,4196.93939352,486.303030254,4383.42424199,4166.54545413,4204.15151473,24.7272727248,4794.51515104,3263.99999967,4428.75757531,70.0606060536,42.0,42.0,?
2017-08-07 12:06:34.866780,4520.96969652,3729.69696932,4313.36363593,4166.54545413,3868.7878784,523.393939342,3899.18181779,696.484848415,4263.39393897,519.272727221,4442.15151471,181.333333315,4157.78787837,3383.51515118,4326.24242381,3049.69696939,4672.93939347,3202.18181786,4189.21212079,486.303030254,4374.15151471,4166.54545413,4200.03030261,24.7272727248,4789.36363588,3263.99999967,4427.21212077,70.0606060536,42.0,42.0,?
2017-08-07 12:06:34.873005,4519.93939349,3729.69696932,4312.84848442,4166.54545413,3874.45454507,523.393939342,3900.21212082,696.484848415,4264.424242,519.272727221,4447.30302986,181.333333315,4159.33333292,3383.51515118,4323.66666623,3049.69696939,4675.51515105,3202.18181786,4196.424242,486.303030254,4378.78787835,4166.54545413,4202.60606019,24.7272727248,4793.48484801,3263.99999967,4422.57575713,70.0606060536,42.0,42.0,?
2017-08-07 12:06:34.881073,4523.54545409,3729.69696932,4317.48484805,4166.54545413,3872.90909052,523.393939342,3904.84848446,696.484848415,4267.51515109,511.030302979,4450.90909046,181.333333315,4170.66666625,3383.51515118,4328.30302987,3049.69696939,4682.21212074,3202.18181786,4208.27272685,486.303030254,4395.27272683,4166.54545413,4212.39393897,24.7272727248,4808.42424194,3263.99999967,4426.69696925,70.0606060536,42.0,42.0,?
2017-08-07 12:06:34.892428,4524.06060561,3729.69696932,4314.90909048,4166.54545413,3869.30302992,523.393939342,3899.69696931,696.484848415,4266.48484806,511.030302979,4448.8484844,181.333333315,4179.93939352,3383.51515118,4339.12121169,3049.69696939,4681.69696923,3202.18181786,4209.8181814,486.303030254,4404.03030259,4166.54545413,4220.1212117,24.7272727248,4820.27272679,3263.99999967,4433.39393895,70.0606060536,42.0,42.0,?
2017-08-07 12:06:34.898947,4522.51515106,3729.69696932,4309.24242381,4166.54545413,3869.30302992,523.393939342,3895.06060567,696.484848415,4264.93939351,511.030302979,4455.03030258,181.333333315,4185.60606019,3379.39393906,4344.78787835,3049.69696939,4682.21212074,3202.18181786,4201.57575716,486.303030254,4399.39393895,4166.54545413,4216.51515109,24.7272727248,4817.1818177,3263.99999967,4432.36363592,70.0606060536,42.0,42.0,?
2017-08-07 12:06:34.904537,4524.06060561,3729.69696932,4312.84848442,4166.54545413,3868.27272689,523.393939342,3897.63636325,696.484848415,4266.48484806,511.030302979,4458.63636319,181.333333315,4187.66666625,3379.39393906,4336.54545411,3062.06060575,4686.84848438,3202.18181786,4197.96969655,486.303030254,4395.27272683,4166.54545413,4207.24242382,24.7272727248,4806.8787874,3263.99999967,4426.18181774,70.0606060536,42.0,42.0,?
2017-08-07 12:06:34.914187,4524.57575712,3729.69696932,4316.45454502,4166.54545413,3861.57575719,523.393939342,3896.60606022,696.484848415,4268.0303026,511.030302979,4450.90909046,181.333333315,4191.27272685,3379.39393906,4331.39393896,3062.06060575,4686.84848438,3198.06060574,4202.09090867,486.303030254,4393.21212077,4166.54545413,4204.15151473,24.7272727248,4803.27272679,3263.99999967,4422.06060562,70.0606060536,42.0,42.0,?
2017-08-07 12:06:34.924553,4524.57575712,3729.69696932,4315.93939351,4166.54545413,3863.12121173,523.393939342,3896.0909087,696.484848415,4269.06060563,511.030302979,4454.51515107,181.333333315,4191.78787837,3379.39393906,4339.6363632,3062.06060575,4680.6666662,3198.06060574,4200.54545413,490.424242375,4389.60606017,4166.54545413,4201.57575716,24.7272727248,4804.30302982,3263.99999967,4425.66666622,70.0606060536,42.0,42.0,?
2017-08-07 12:06:34.930987,4526.12121167,3729.69696932,4319.0303026,4166.54545413,3872.39393901,523.393939342,3899.18181779,696.484848415,4269.06060563,511.030302979,4460.69696925,181.333333315,4179.93939352,3379.39393906,4337.06060563,3062.06060575,4674.99999953,3198.06060574,4191.78787837,490.424242375,4385.99999956,4166.54545413,4195.90909049,24.7272727248,4801.72727225,3263.99999967,4426.69696925,70.0606060536,42.0,42.0,?
2017-08-07 12:06:34.937843,4524.57575712,3729.69696932,4316.45454502,4166.54545413,3869.81818143,523.393939342,3897.63636325,696.484848415,4264.424242,511.030302979,4452.45454501,181.333333315,4169.63636322,3379.39393906,4322.12121169,3062.06060575,4673.9696965,3198.06060574,4190.24242382,490.424242375,4386.51515108,4166.54545413,4196.424242,28.8484848456,4799.15151467,3263.99999967,4416.90909047,70.0606060536,42.0,42.0,?
2017-08-07 12:06:34.943946,4520.96969652,3729.69696932,4306.15151472,4166.54545413,3864.66666628,523.393939342,3895.06060567,696.484848415,4262.36363594,511.030302979,4448.8484844,181.333333315,4181.48484807,3379.39393906,4325.72727229,3062.06060575,4676.54545408,3198.06060574,4201.57575716,490.424242375,4395.27272683,4166.54545413,4205.18181776,28.8484848456,4804.30302982,3263.99999967,4415.87878744,70.0606060536,42.0,42.0,?
2017-08-07 12:06:34.952319,4523.03030258,3729.69696932,4306.15151472,4166.54545413,3871.87878749,523.393939342,3899.69696931,696.484848415,4265.96969654,511.030302979,4455.5454541,181.333333315,4196.93939352,3379.39393906,4342.72727229,3062.06060575,4676.03030256,3198.06060574,4211.87878746,482.181818134,4398.36363592,4166.54545413,4215.48484806,28.8484848456,4809.45454497,3263.99999967,4425.15151471,70.0606060536,42.0,42.0,?
2017-08-07 12:06:34.959666,4523.54545409,3729.69696932,4314.39393896,4166.54545413,3878.06060567,523.393939342,3902.27272688,696.484848415,4265.96969654,511.030302979,4456.57575713,181.333333315,4195.90909049,3379.39393906,4341.18181775,3062.06060575,4674.99999953,3198.06060574,4206.72727231,482.181818134,4389.60606017,4166.54545413,4214.96969655,28.8484848456,4805.84848437,3263.99999967,4428.2424238,70.0606060536,42.0,42.0,?
2017-08-07 12:06:34.966930,4523.54545409,3729.69696932,4315.93939351,4166.54545413,3873.93939355,523.393939342,3897.63636325,696.484848415,4262.36363594,511.030302979,4460.18181774,181.333333315,4187.66666625,3379.39393906,4328.30302987,3062.06060575,4676.03030256,3198.06060574,4202.09090867,482.181818134,4390.6363632,4166.54545413,4208.78787837,24.7272727248,4806.36363588,3263.99999967,4428.2424238,70.0606060536,42.0,42.0,?
2017-08-07 12:06:34.975999,4532.30302985,3729.69696932,4317.99999957,4166.54545413,3877.54545416,523.393939342,3901.75757537,696.484848415,4264.424242,511.030302979,4467.90909046,181.333333315,4187.66666625,3379.39393906,4333.45454502,3062.06060575,4676.03030256,3198.06060574,4210.33333291,482.181818134,4402.48484804,4166.54545413,4211.87878746,24.7272727248,4815.12121164,3263.99999967,4433.39393895,70.0606060536,42.0,42.0,?
2017-08-07 12:06:34.983580,4533.8484844,3729.69696932,4324.18181775,4166.54545413,3886.81818143,523.393939342,3907.93939355,696.484848415,4269.06060563,511.030302979,4459.66666622,181.333333315,4192.30302988,3379.39393906,4346.3333329,3062.06060575,4673.9696965,3198.06060574,4212.90909049,482.181818134,4401.45454501,4166.54545413,4219.09090867,24.7272727248,4813.57575709,3263.99999967,4433.90909047,70.0606060536,42.0,42.0,?
2017-08-07 12:06:34.995368,4523.03030258,3729.69696932,4325.72727229,4166.54545413,3883.21212082,523.393939342,3900.21212082,696.484848415,4268.0303026,511.030302979,4450.39393895,181.333333315,4186.1212117,3379.39393906,4338.60606017,3062.06060575,4674.99999953,3198.06060574,4206.21212079,482.181818134,4393.72727229,4166.54545413,4219.60606018,24.7272727248,4805.84848437,3263.99999967,4425.15151471,70.0606060536,42.0,42.0,?
2017-08-07 12:06:35.001005,4524.57575712,3729.69696932,4322.12121169,4166.54545413,3873.93939355,523.393939342,3894.54545416,696.484848415,4267.51515109,511.030302979,4456.57575713,181.333333315,4172.72727231,3379.39393906,4321.60606017,3062.06060575,4678.60606014,3198.06060574,4206.21212079,482.181818134,4398.36363592,4166.54545413,4226.8181814,24.7272727248,4813.06060558,3263.99999967,4419.48484804,70.0606060536,42.0,42.0,?
2017-08-07 12:06:35.006530,4533.33333288,3729.69696932,4321.60606017,4166.54545413,3872.39393901,523.393939342,3906.393939,696.484848415,4274.21212078,511.030302979,4464.30302986,181.333333315,4171.69696928,3379.39393906,4320.57575714,3062.06060575,4678.60606014,3198.06060574,4212.39393897,482.181818134,4404.54545411,4166.54545413,4235.57575715,24.7272727248,4821.81818134,3263.99999967,4418.45454501,70.0606060536,42.0,42.0,?
2017-08-07 12:06:35.020081,4533.8484844,3729.69696932,4327.27272684,4166.54545413,3878.06060567,523.393939342,3908.45454506,696.484848415,4274.21212078,511.030302979,4466.87878743,181.333333315,4185.60606019,3379.39393906,4334.48484805,3062.06060575,4671.90909044,3198.06060574,4211.36363594,482.181818134,4399.39393895,4166.54545413,4225.27272685,24.7272727248,4815.12121164,3263.99999967,4423.60606016,70.0606060536,42.0,42.0,?
2017-08-07 12:06:35.022835,4533.33333288,3729.69696932,4327.27272684,4166.54545413,3884.24242385,523.393939342,3899.69696931,696.484848415,4272.15151472,511.030302979,4468.93939349,181.333333315,4203.1212117,3379.39393906,4348.90909047,3062.06060575,4671.90909044,3198.06060574,4206.72727231,482.181818134,4397.84848441,4166.54545413,4215.48484806,24.7272727248,4809.45454497,3263.99999967,4429.78787834,70.0606060536,42.0,42.0,?
2017-08-07 12:06:35.032185,4534.36363591,3729.69696932,4317.48484805,4166.54545413,3882.18181779,523.393939342,3905.36363597,696.484848415,4278.84848442,511.030302979,4462.75757531,181.333333315,4203.63636322,3379.39393906,4349.9393935,3062.06060575,4675.51515105,3198.06060574,4209.8181814,482.181818134,4401.96969653,4166.54545413,4226.30302988,24.7272727248,4814.09090861,3263.99999967,4428.2424238,70.0606060536,42.0,42.0,?
2017-08-07 12:06:35.041052,4533.8484844,3729.69696932,4311.81818139,4166.54545413,3877.03030264,523.393939342,3905.87878749,696.484848415,4277.30302988,511.030302979,4450.90909046,181.333333315,4189.21212079,3379.39393906,4344.78787835,3062.06060575,4674.99999953,3198.06060574,4218.57575715,482.181818134,4405.57575714,4166.54545413,4238.15151473,24.7272727248,4820.27272679,3263.99999967,4424.63636319,70.0606060536,42.0,42.0,?
2017-08-07 12:06:35.046058,4535.39393894,3729.69696932,4313.36363593,4166.54545413,3880.63636325,523.393939342,3899.69696931,696.484848415,4264.424242,511.030302979,4449.36363592,181.333333315,4187.15151473,3379.39393906,4344.27272684,3062.06060575,4681.69696923,3198.06060574,4221.15151473,482.181818134,4406.60606017,4166.54545413,4235.57575715,24.7272727248,4822.84848437,3263.99999967,4427.21212077,70.0606060536,42.0,42.0,?
2017-08-07 12:06:35.056075,4534.87878743,3729.69696932,4313.87878745,4166.54545413,3886.30302991,523.393939342,3907.42424203,696.484848415,4265.96969654,511.030302979,4450.90909046,181.333333315,4191.78787837,3379.39393906,4339.12121169,3062.06060575,4688.90909044,3198.06060574,4210.84848443,482.181818134,4399.90909047,4166.54545413,4223.21212079,24.7272727248,4816.66666619,3263.99999967,4428.75757531,70.0606060536,42.0,42.0,?
2017-08-07 12:06:35.061684,4528.18181773,3729.69696932,4312.84848442,4166.54545413,3883.72727234,523.393939342,3911.54545415,696.484848415,4270.60606018,511.030302979,4450.90909046,181.333333315,4178.90909049,3379.39393906,4330.36363593,3062.06060575,4685.30302983,3198.06060574,4204.66666625,482.181818134,4390.6363632,4166.54545413,4216.51515109,24.7272727248,4805.84848437,3263.99999967,4421.5454541,70.0606060536,42.0,42.0,?
2017-08-07 12:06:35.072197,4523.54545409,3729.69696932,4306.66666624,4166.54545413,3878.06060567,523.393939342,3897.63636325,696.484848415,4266.48484806,511.030302979,4459.15151471,181.333333315,4167.57575716,3379.39393906,4329.3333329,3062.06060575,4683.24242377,3198.06060574,4206.21212079,482.181818134,4388.57575714,4166.54545413,4220.1212117,24.7272727248,4804.30302982,3263.99999967,4416.90909047,70.0606060536,42.0,42.0,?
2017-08-07 12:06:35.077376,4519.93939349,3729.69696932,4302.54545412,4166.54545413,3876.51515113,523.393939342,3892.4848481,696.484848415,4273.69696927,511.030302979,4467.90909046,181.333333315,4178.90909049,3379.39393906,4333.96969654,3062.06060575,4686.33333286,3198.06060574,4203.63636322,482.181818134,4387.03030259,4166.54545413,4218.06060564,24.7272727248,4804.81818134,3263.99999967,4414.84848441,70.0606060536,42.0,42.0,?
2017-08-07 12:06:35.087413,4521.48484803,3729.69696932,4310.78787836,4166.54545413,3880.12121173,523.393939342,3901.24242385,696.484848415,4280.90909048,511.030302979,4466.36363592,181.333333315,4190.24242382,3379.39393906,4340.66666623,3062.06060575,4687.36363589,3198.06060574,4206.72727231,482.181818134,4385.99999956,4166.54545413,4213.93939352,24.7272727248,4803.27272679,3263.99999967,4417.42424198,70.0606060536,42.0,42.0,?
2017-08-07 12:06:35.092078,4532.30302985,3729.69696932,4321.09090866,4166.54545413,3889.90909052,523.393939342,3902.7878784,696.484848415,4271.12121169,511.030302979,4460.69696925,181.333333315,4189.21212079,3379.39393906,4345.30302987,3062.06060575,4687.87878741,3198.06060574,4216.51515109,482.181818134,4398.36363592,4166.54545413,4225.27272685,24.7272727248,4814.09090861,3263.99999967,4427.72727228,70.0606060536,42.0,42.0,?
2017-08-07 12:06:35.100165,4541.06060561,3729.69696932,4322.6363632,4166.54545413,3894.03030264,523.393939342,3900.21212082,696.484848415,4265.96969654,511.030302979,4460.18181774,181.333333315,4186.1212117,3379.39393906,4340.66666623,3062.06060575,4688.39393893,3198.06060574,4222.69696927,482.181818134,4413.30302986,4166.54545413,4239.18181776,24.7272727248,4825.42424194,3263.99999967,4435.45454501,70.0606060536,42.0,42.0,?
2017-08-07 12:06:35.109815,4542.09090864,3729.69696932,4326.24242381,4166.54545413,3892.4848481,523.393939342,3905.36363597,696.484848415,4267.51515109,511.030302979,4459.15151471,181.333333315,4188.69696928,3379.39393906,4336.54545411,3062.06060575,4691.48484802,3198.06060574,4225.78787837,482.181818134,4412.27272683,4166.54545413,4240.21212079,24.7272727248,4823.36363588,3263.99999967,4433.90909047,70.0606060536,42.0,42.0,?
2017-08-07 12:06:35.119358,4541.57575712,3729.69696932,4329.84848442,4166.54545413,3889.393939,523.393939342,3908.96969658,696.484848415,4262.36363594,511.030302979,4451.42424198,181.333333315,4191.27272685,3379.39393906,4338.60606017,3062.06060575,4697.6666662,3198.06060574,4228.36363594,482.181818134,4405.57575714,4166.54545413,4236.60606018,24.7272727248,4820.27272679,3263.99999967,4426.18181774,70.0606060536,42.0,42.0,?
2017-08-07 12:06:35.126653,4541.06060561,3729.69696932,4324.18181775,4166.54545413,3884.75757537,523.393939342,3901.75757537,696.484848415,4260.81818139,511.030302979,4445.75757531,181.333333315,4179.93939352,3379.39393906,4335.51515108,3062.06060575,4696.12121165,3198.06060574,4225.27272685,482.181818134,4406.60606017,4166.54545413,4237.1212117,24.7272727248,4822.84848437,3263.99999967,4417.42424198,70.0606060536,42.0,42.0,?
2017-08-07 12:06:35.137660,4532.30302985,3729.69696932,4323.15151472,4166.54545413,3883.72727234,523.393939342,3899.18181779,696.484848415,4267.51515109,511.030302979,4450.90909046,181.333333315,4173.24242383,3379.39393906,4325.72727229,3062.06060575,4686.84848438,3198.06060574,4219.60606018,482.181818134,4408.15151471,4166.54545413,4232.48484806,24.7272727248,4821.30302982,3263.99999967,4416.90909047,70.0606060536,42.0,42.0,?
2017-08-07 12:06:35.140711,4532.30302985,3729.69696932,4327.27272684,4166.54545413,3885.27272688,523.393939342,3903.81818143,696.484848415,4267.51515109,511.030302979,4453.99999955,181.333333315,4181.48484807,3379.39393906,4320.57575714,3062.06060575,4682.21212074,3198.06060574,4212.90909049,482.181818134,4400.42424198,4166.54545413,4232.48484806,24.7272727248,4811.51515103,3263.99999967,4419.48484804,70.0606060536,42.0,42.0,?
2017-08-07 12:06:35.147752,4523.54545409,3729.69696932,4325.72727229,4166.54545413,3882.69696931,523.393939342,3898.66666628,696.484848415,4264.424242,511.030302979,4446.78787834,181.333333315,4183.54545413,3379.39393906,4324.18181775,3062.06060575,4684.78787832,3198.06060574,4199.5151511,482.181818134,4385.48484805,4166.54545413,4221.66666624,24.7272727248,4800.1818177,3263.99999967,4413.81818138,70.0606060536,42.0,42.0,?
2017-08-07 12:06:35.155057,4517.36363591,3729.69696932,4321.09090866,4166.54545413,3871.87878749,523.393939342,3890.42424204,696.484848415,4264.424242,511.030302979,4450.39393895,181.333333315,4180.96969655,3379.39393906,4328.30302987,3062.06060575,4684.78787832,3198.06060574,4195.39393897,482.181818134,4376.72727229,4166.54545413,4213.424242,24.7272727248,4796.06060558,3263.99999967,4406.60606017,70.0606060536,42.0,42.0,?
2017-08-07 12:06:35.164716,4517.87878743,3729.69696932,4322.6363632,4166.54545413,3867.24242386,523.393939342,3892.4848481,696.484848415,4268.54545412,511.030302979,4461.72727228,181.333333315,4183.54545413,3379.39393906,4332.93939351,3062.06060575,4686.33333286,3198.06060574,4204.15151473,482.181818134,4379.30302987,4166.54545413,4215.99999958,24.7272727248,4798.63636316,3263.99999967,4405.57575714,70.0606060536,42.0,42.0,?
2017-08-07 12:06:35.170815,4522.51515106,3729.69696932,4327.27272684,4166.54545413,3873.93939355,523.393939342,3895.06060567,696.484848415,4268.54545412,511.030302979,4455.03030258,181.333333315,4177.36363595,3379.39393906,4331.90909048,3062.06060575,4690.9696965,3198.06060574,4204.66666625,482.181818134,4387.03030259,4166.54545413,4220.1212117,24.7272727248,4801.72727225,3263.99999967,4409.18181774,70.0606060536,42.0,42.0,?
2017-08-07 12:06:35.179719,4528.18181773,3729.69696932,4330.36363593,4166.54545413,3883.21212082,523.393939342,3898.15151476,696.484848415,4256.18181776,511.030302979,4440.60606016,181.333333315,4167.06060564,3379.39393906,4321.60606017,3062.06060575,4692.51515105,3198.06060574,4201.06060564,482.181818134,4394.2424238,4166.54545413,4218.06060564,24.7272727248,4802.75757528,3263.99999967,4419.48484804,70.0606060536,42.0,42.0,?
2017-08-07 12:06:35.188570,4533.8484844,3729.69696932,4333.45454502,4166.54545413,3886.30302991,523.393939342,3899.69696931,696.484848415,4252.06060564,511.030302979,4443.69696925,181.333333315,4170.15151473,3379.39393906,4322.6363632,3062.06060575,4697.6666662,3198.06060574,4206.72727231,482.181818134,4399.39393895,4166.54545413,4218.06060564,24.7272727248,4808.93939346,3263.99999967,4430.81818138,70.0606060536,42.0,42.0,?
2017-08-07 12:06:35.194745,4536.93939349,3729.69696932,4330.87878745,4166.54545413,3886.81818143,523.393939342,3897.12121173,696.484848415,4261.33333291,511.030302979,4450.39393895,181.333333315,4173.75757534,3379.39393906,4332.42424199,3062.06060575,4705.39393892,3198.06060574,4212.39393897,482.181818134,4399.90909047,4166.54545413,4221.66666624,24.7272727248,4815.12121164,3263.99999967,4428.75757531,70.0606060536,42.0,42.0,?
2017-08-07 12:06:35.204695,4533.8484844,3729.69696932,4323.66666623,4166.54545413,3886.30302991,523.393939342,3898.66666628,696.484848415,4258.75757533,511.030302979,4445.75757531,181.333333315,4171.69696928,3379.39393906,4333.96969654,3062.06060575,4703.33333286,3198.06060574,4208.78787837,482.181818134,4396.30302986,4166.54545413,4220.63636321,24.7272727248,4813.57575709,3263.99999967,4419.99999956,70.0606060536,42.0,42.0,?
2017-08-07 12:06:35.209926,4531.27272682,3729.69696932,4321.09090866,4166.54545413,3882.18181779,523.393939342,3897.63636325,696.484848415,4254.63636321,511.030302979,4445.2424238,181.333333315,4179.42424201,3379.39393906,4336.54545411,3062.06060575,4697.15151468,3198.06060574,4204.15151473,482.181818134,4396.30302986,4166.54545413,4220.1212117,24.7272727248,4810.99999952,3263.99999967,4416.39393895,70.0606060536,42.0,42.0,?
2017-08-07 12:06:35.218748,4534.87878743,3729.69696932,4320.06060563,4166.54545413,3876.51515113,523.393939342,3895.06060567,696.484848415,4259.27272685,511.030302979,4449.87878743,181.333333315,4190.24242382,3379.39393906,4341.69696926,3062.06060575,4700.75757529,3198.06060574,4205.69696928,482.181818134,4397.33333289,4166.54545413,4227.33333291,24.7272727248,4815.12121164,3263.99999967,4411.75757532,70.0606060536,42.0,42.0,?
2017-08-07 12:06:35.227246,4537.454545,3729.69696932,4316.96969654,4166.54545413,3873.93939355,523.393939342,3895.06060567,696.484848415,4259.27272685,511.030302979,4450.39393895,181.333333315,4192.30302988,3379.39393906,4336.54545411,3062.06060575,4701.2727268,3198.06060574,4204.66666625,482.181818134,4396.81818138,4166.54545413,4227.84848443,24.7272727248,4818.21212073,3263.99999967,4404.03030259,70.0606060536,42.0,42.0,?
2017-08-07 12:06:35.232921,4534.36363591,3729.69696932,4313.36363593,4166.54545413,3873.93939355,523.393939342,3895.06060567,696.484848415,4256.69696927,511.030302979,4452.45454501,181.333333315,4190.24242382,3379.39393906,4331.39393896,3062.06060575,4697.15151468,3198.06060574,4200.03030261,482.181818134,4397.84848441,4166.54545413,4225.27272685,24.7272727248,4817.1818177,3263.99999967,4400.9393935,70.0606060536,42.0,42.0,?
2017-08-07 12:06:35.243776,4526.63636318,3729.69696932,4313.36363593,4166.54545413,3870.33333295,523.393939342,3892.99999961,696.484848415,4260.30302988,511.030302979,4455.03030258,181.333333315,4191.27272685,3379.39393906,4333.96969654,3062.06060575,4717.75757529,3198.06060574,4198.99999958,482.181818134,4396.30302986,4166.54545413,4234.54545412,24.7272727248,4815.12121164,3263.99999967,4397.33333289,70.0606060536,42.0,42.0,?
2017-08-07 12:06:35.250518,4526.63636318,3729.69696932,4313.36363593,4166.54545413,3870.33333295,523.393939342,3892.99999961,696.484848415,4260.30302988,511.030302979,4452.45454501,181.333333315,4191.78787837,3379.39393906,4336.54545411,3062.06060575,4717.75757529,3198.06060574,4200.03030261,482.181818134,4394.75757532,4166.54545413,4234.54545412,24.7272727248,4815.12121164,3263.99999967,4392.18181774,70.0606060536,42.0,42.0,?
2017-08-07 12:06:35.256808,4531.78787833,3729.69696932,4312.3333329,4166.54545413,3874.45454507,523.393939342,3896.0909087,696.484848415,4259.78787836,511.030302979,4452.96969652,181.333333315,4186.1212117,3379.39393906,4340.15151472,3062.06060575,4721.87878741,3198.06060574,4203.1212117,482.181818134,4400.9393935,4166.54545413,4236.60606018,24.7272727248,4820.27272679,3263.99999967,4395.78787835,70.0606060536,42.0,42.0,?
2017-08-07 12:06:35.264986,4536.42424197,3729.69696932,4314.39393896,4166.54545413,3878.06060567,523.393939342,3896.0909087,696.484848415,4260.81818139,511.030302979,4457.60606016,181.333333315,4176.33333292,3379.39393906,4340.66666623,3062.06060575,4721.36363589,3198.06060574,4208.27272685,482.181818134,4407.12121168,4166.54545413,4238.66666624,24.7272727248,4823.8787874,3263.99999967,4402.48484804,70.0606060536,42.0,42.0,?
2017-08-07 12:06:35.279290,4534.36363591,3729.69696932,4312.3333329,4166.54545413,3876.51515113,523.393939342,3894.54545416,696.484848415,4262.87878745,511.030302979,4456.57575713,181.333333315,4172.21212079,3379.39393906,4329.84848442,3062.06060575,4719.81818135,3198.06060574,4203.1212117,482.181818134,4400.9393935,4166.54545413,4230.424242,24.7272727248,4819.24242376,3263.99999967,4399.39393895,70.0606060536,42.0,42.0,?
2017-08-07 12:06:35.285661,4525.60606015,3729.69696932,4308.21212078,4166.54545413,3870.33333295,523.393939342,3893.51515113,696.484848415,4271.12121169,511.030302979,4456.57575713,181.333333315,4177.36363595,3379.39393906,4326.75757532,3062.06060575,4716.21212074,3198.06060574,4191.78787837,482.181818134,4389.09090865,4166.54545413,4216.51515109,24.7272727248,4809.45454497,3263.99999967,4391.15151471,70.0606060536,42.0,42.0,?
2017-08-07 12:06:35.292839,4524.06060561,3729.69696932,4308.21212078,4166.54545413,3868.7878784,523.393939342,3895.06060567,696.484848415,4273.69696927,511.030302979,4462.75757531,181.333333315,4186.63636322,3379.39393906,4338.60606017,3062.06060575,4714.6666662,3198.06060574,4187.15151473,482.181818134,4384.96969653,4166.54545413,4215.99999958,24.7272727248,4804.81818134,3263.99999967,4391.15151471,70.0606060536,42.0,42.0,?
2017-08-07 12:06:35.297871,4533.33333288,3729.69696932,4311.81818139,4166.54545413,3873.42424204,523.393939342,3896.60606022,696.484848415,4269.06060563,511.030302979,4470.99999955,181.333333315,4198.48484806,3379.39393906,4346.84848441,3062.06060575,4715.18181771,3198.06060574,4189.72727231,482.181818134,4391.66666623,4166.54545413,4218.06060564,24.7272727248,4812.54545406,3263.99999967,4395.27272683,70.0606060536,42.0,42.0,?
2017-08-07 12:06:35.305319,4538.48484803,3729.69696932,4311.81818139,4166.54545413,3871.87878749,523.393939342,3899.69696931,696.484848415,4267.51515109,511.030302979,4469.96969652,181.333333315,4201.06060564,3379.39393906,4340.66666623,3062.06060575,4715.69696923,3198.06060574,4188.69696928,482.181818134,4394.2424238,4166.54545413,4217.03030261,24.7272727248,4816.66666619,3263.99999967,4394.75757532,70.0606060536,42.0,42.0,?
2017-08-07 12:06:35.311883,4536.42424197,3729.69696932,4309.75757533,4166.54545413,3866.72727234,523.393939342,3898.66666628,696.484848415,4270.60606018,511.030302979,4463.27272683,181.333333315,4189.21212079,3379.39393906,4331.39393896,3062.06060575,4718.2727268,3198.06060574,4185.09090867,482.181818134,4390.6363632,4166.54545413,4218.57575715,24.7272727248,4813.06060558,3263.99999967,4390.6363632,70.0606060536,42.0,42.0,?
2017-08-07 12:06:35.321187,4540.03030258,3729.69696932,4312.84848442,4166.54545413,3869.30302992,523.393939342,3897.12121173,696.484848415,4276.27272685,511.030302979,4462.2424238,181.333333315,4185.09090867,3379.39393906,4334.48484805,3062.06060575,4720.84848438,3198.06060574,4187.66666625,482.181818134,4394.2424238,4166.54545413,4219.60606018,24.7272727248,4814.60606012,3263.99999967,4393.21212077,70.0606060536,42.0,42.0,?
2017-08-07 12:06:35.327693,4543.63636318,3729.69696932,4315.93939351,4166.54545413,3870.33333295,523.393939342,3904.33333294,696.484848415,4273.69696927,511.030302979,4463.78787834,181.333333315,4187.15151473,3379.39393906,4336.0303026,3062.06060575,4723.93939347,3198.06060574,4191.27272685,482.181818134,4398.36363592,4166.54545413,4218.57575715,24.7272727248,4820.78787831,3263.99999967,4407.12121168,70.0606060536,42.0,42.0,?
2017-08-07 12:06:35.335676,4538.48484803,3729.69696932,4313.36363593,4166.54545413,3871.36363598,523.393939342,3912.06060567,696.484848415,4266.99999957,511.030302979,4459.66666622,181.333333315,4176.33333292,3379.39393906,4329.3333329,3062.06060575,4725.99999953,3198.06060574,4189.21212079,482.181818134,4394.2424238,4166.54545413,4219.09090867,24.7272727248,4818.72727225,3263.99999967,4416.90909047,70.0606060536,42.0,42.0,?
2017-08-07 12:06:35.342742,4534.36363591,3729.69696932,4314.39393896,4166.54545413,3880.12121173,523.393939342,3911.03030264,696.484848415,4270.60606018,511.030302979,4456.06060561,181.333333315,4166.03030261,3379.39393906,4327.78787836,3062.06060575,4726.51515104,3198.06060574,4189.72727231,482.181818134,4394.2424238,4166.54545413,4221.15151473,24.7272727248,4817.1818177,3263.99999967,4416.39393895,70.0606060536,42.0,42.0,?
2017-08-07 12:06:35.349945,4537.96969652,3729.69696932,4319.54545411,4166.54545413,3884.24242385,523.393939342,3910.51515112,696.484848415,4276.78787836,511.030302979,4457.60606016,181.333333315,4177.87878746,3379.39393906,4337.57575714,3062.06060575,4728.5757571,3198.06060574,4197.45454503,482.181818134,4399.39393895,4166.54545413,4222.18181776,24.7272727248,4820.27272679,3263.99999967,4420.51515107,70.0606060536,42.0,42.0,?
2017-08-07 12:06:35.357926,4535.39393894,3729.69696932,4315.93939351,4154.18181777,3882.18181779,523.393939342,3913.0909087,696.484848415,4270.60606018,511.030302979,4457.09090865,181.333333315,4186.63636322,3379.39393906,4340.15151472,3062.06060575,4729.09090862,3198.06060574,4193.33333291,482.181818134,4391.66666623,4166.54545413,4220.63636321,24.7272727248,4813.06060558,3263.99999967,4425.66666622,70.0606060536,42.0,42.0,?
2017-08-07 12:06:35.365894,4526.12121167,3729.69696932,4306.66666624,4154.18181777,3879.60606022,523.393939342,3912.06060567,696.484848415,4265.96969654,511.030302979,4454.51515107,181.333333315,4181.99999958,3379.39393906,4329.84848442,3062.06060575,4724.45454498,3198.06060574,4183.54545413,482.181818134,4377.75757532,4166.54545413,4217.54545412,24.7272727248,4805.84848437,3263.99999967,4419.99999956,78.3030302952,42.0,42.0,?
2017-08-07 12:06:35.374511,4528.18181773,3729.69696932,4307.69696927,4154.18181777,3879.0909087,515.1515151,3909.48484809,696.484848415,4270.09090866,511.030302979,4453.48484804,181.333333315,4184.57575716,3379.39393906,4326.24242381,3062.06060575,4722.90909044,3198.06060574,4188.18181776,482.181818134,4382.39393896,4166.54545413,4218.57575715,24.7272727248,4815.63636315,3263.99999967,4421.03030259,78.3030302952,42.0,42.0,?
2017-08-07 12:06:35.381750,4536.93939349,3729.69696932,4308.7272723,4154.18181777,3883.21212082,515.1515151,3909.99999961,696.484848415,4273.18181775,511.030302979,4451.42424198,181.333333315,4190.75757534,3379.39393906,4333.45454502,3062.06060575,4728.06060559,3198.06060574,4195.39393897,482.181818134,4394.75757532,4166.54545413,4223.21212079,24.7272727248,4822.33333285,3263.99999967,4431.84848441,78.3030302952,42.0,42.0,?
2017-08-07 12:06:35.393775,4534.87878743,3729.69696932,4303.06060563,4154.18181777,3885.27272688,515.1515151,3911.54545415,696.484848415,4273.69696927,519.272727221,4449.87878743,181.333333315,4190.24242382,3379.39393906,4335.51515108,3062.06060575,4731.15151468,3198.06060574,4196.93939352,482.181818134,4392.69696926,4166.54545413,4222.18181776,24.7272727248,4815.12121164,3263.99999967,4434.9393935,78.3030302952,42.0,42.0,?
2017-08-07 12:06:35.400343,4529.72727227,3729.69696932,4298.42424199,4154.18181777,3880.63636325,515.1515151,3911.03030264,696.484848415,4273.69696927,519.272727221,4452.45454501,193.696969678,4182.5151511,3379.39393906,4327.78787836,3062.06060575,4728.06060559,3198.06060574,4194.87878746,482.181818134,4384.45454502,4166.54545413,4218.57575715,24.7272727248,4812.03030255,3263.99999967,4429.78787834,78.3030302952,42.0,42.0,?
2017-08-07 12:06:35.405934,4527.66666621,3729.69696932,4297.39393896,4154.18181777,3875.4848481,515.1515151,3908.45454506,696.484848415,4275.24242381,519.272727221,4456.06060561,193.696969678,4172.72727231,3387.6363633,4322.6363632,3062.06060575,4726.51515104,3198.06060574,4193.33333291,482.181818134,4384.45454502,4166.54545413,4215.99999958,24.7272727248,4810.99999952,3263.99999967,4422.06060562,78.3030302952,42.0,42.0,?
2017-08-07 12:06:35.414449,4525.60606015,3729.69696932,4296.36363593,4154.18181777,3877.03030264,515.1515151,3907.42424203,696.484848415,4267.51515109,519.272727221,4451.93939349,193.696969678,4176.33333292,3387.6363633,4327.78787836,3057.93939363,4727.03030256,3198.06060574,4193.84848443,482.181818134,4384.45454502,4166.54545413,4217.54545412,24.7272727248,4804.81818134,3263.99999967,4421.5454541,78.3030302952,42.0,42.0,?
2017-08-07 12:06:35.420946,4524.57575712,3729.69696932,4297.39393896,4154.18181777,3881.15151476,515.1515151,3904.84848446,696.484848415,4256.69696927,519.272727221,4442.15151471,193.696969678,4185.60606019,3387.6363633,4332.93939351,3057.93939363,4723.42424195,3243.39393907,4196.424242,482.181818134,4384.45454502,4166.54545413,4218.57575715,24.7272727248,4805.33333285,3263.99999967,4429.27272683,78.3030302952,42.0,42.0,?
2017-08-07 12:06:35.429905,4526.12121167,3729.69696932,4300.48484805,4154.18181777,3882.18181779,515.1515151,3905.87878749,696.484848415,4257.21212079,519.272727221,4444.72727228,193.696969678,4177.36363595,3387.6363633,4328.30302987,3057.93939363,4721.36363589,3243.39393907,4198.48484806,478.060606013,4385.99999956,4166.54545413,4211.36363594,24.7272727248,4808.42424194,3263.99999967,4431.33333289,78.3030302952,42.0,42.0,?
2017-08-07 12:06:35.436820,4528.69696924,3729.69696932,4298.93939351,4154.18181777,3882.18181779,515.1515151,3911.54545415,696.484848415,4260.81818139,519.272727221,4450.90909046,193.696969678,4174.78787837,3387.6363633,4322.12121169,3057.93939363,4723.42424195,3243.39393907,4200.03030261,478.060606013,4383.9393935,4154.18181777,4208.78787837,24.7272727248,4808.93939346,3263.99999967,4428.2424238,78.3030302952,42.0,42.0,?
2017-08-07 12:06:35.443935,4530.7575753,3729.69696932,4296.36363593,4154.18181777,3883.21212082,515.1515151,3912.57575718,696.484848415,4260.81818139,519.272727221,4445.2424238,193.696969678,4190.24242382,3387.6363633,4326.24242381,3057.93939363,4723.42424195,3243.39393907,4200.54545413,478.060606013,4383.9393935,4154.18181777,4216.51515109,20.606060604,4812.03030255,3263.99999967,4428.75757531,78.3030302952,42.0,42.0,?
2017-08-07 12:06:35.453960,4530.24242379,3729.69696932,4296.87878745,4154.18181777,3882.69696931,515.1515151,3910.51515112,696.484848415,4263.90909048,519.272727221,4443.69696925,193.696969678,4185.60606019,3387.6363633,4331.90909048,3057.93939363,4721.36363589,3243.39393907,4202.09090867,478.060606013,4386.51515108,4154.18181777,4220.63636321,20.606060604,4814.09090861,3272.24242392,4428.75757531,78.3030302952,42.0,42.0,?
2017-08-07 12:06:35.460149,4529.21212076,3729.69696932,4295.84848442,4154.18181777,3883.21212082,515.1515151,3908.96969658,696.484848415,4269.57575715,519.272727221,4456.06060561,193.696969678,4169.1212117,3387.6363633,4328.30302987,3057.93939363,4720.84848438,3243.39393907,4204.15151473,486.303030254,4386.51515108,4154.18181777,4218.06060564,20.606060604,4813.06060558,3272.24242392,4427.72727228,78.3030302952,42.0,42.0,?
2017-08-07 12:06:35.468435,4530.24242379,3729.69696932,4289.66666624,4154.18181777,3883.72727234,515.1515151,3907.42424203,696.484848415,4269.57575715,519.272727221,4459.15151471,193.696969678,4169.1212117,3387.6363633,4317.48484805,3057.93939363,4724.9696965,3243.39393907,4198.48484806,486.303030254,4383.42424199,4154.18181777,4218.57575715,20.606060604,4814.09090861,3272.24242392,4426.69696925,78.3030302952,42.0,42.0,?
2017-08-07 12:06:35.475988,4527.66666621,3729.69696932,4283.48484806,4154.18181777,3881.66666628,515.1515151,3904.33333294,696.484848415,4268.0303026,519.272727221,4451.42424198,193.696969678,4170.15151473,3387.6363633,4311.81818139,3057.93939363,4724.9696965,3243.39393907,4188.18181776,486.303030254,4379.81818138,4154.18181777,4217.54545412,20.606060604,4810.484848,3272.24242392,4418.96969653,78.3030302952,42.0,42.0,?
2017-08-07 12:06:35.483540,4524.57575712,3729.69696932,4282.96969654,4154.18181777,3881.66666628,515.1515151,3908.96969658,696.484848415,4268.0303026,519.272727221,4453.99999955,193.696969678,4169.1212117,3387.6363633,4315.42424199,3057.93939363,4721.36363589,3243.39393907,4189.72727231,486.303030254,4379.30302987,4154.18181777,4215.99999958,20.606060604,4806.8787874,3272.24242392,4416.39393895,78.3030302952,42.0,42.0,?
2017-08-07 12:06:35.492167,4528.18181773,3729.69696932,4283.99999957,4154.18181777,3881.15151476,515.1515151,3912.57575718,696.484848415,4264.93939351,519.272727221,4458.12121168,193.696969678,4174.27272686,3387.6363633,4317.99999957,3057.93939363,4721.87878741,3243.39393907,4195.39393897,486.303030254,4384.45454502,4154.18181777,4218.06060564,20.606060604,4812.03030255,3272.24242392,4419.48484804,78.3030302952,42.0,42.0,?
2017-08-07 12:06:35.499551,4530.7575753,3729.69696932,4284.51515109,4154.18181777,3880.12121173,515.1515151,3902.7878784,696.484848415,4261.84848442,519.272727221,4450.39393895,193.696969678,4173.75757534,3387.6363633,4314.39393896,3057.93939363,4723.93939347,3243.39393907,4192.30302988,486.303030254,4386.51515108,4154.18181777,4218.06060564,20.606060604,4815.63636315,3272.24242392,4416.90909047,78.3030302952,42.0,42.0,?
2017-08-07 12:06:35.507393,4527.1515147,3729.69696932,4283.48484806,4154.18181777,3881.15151476,515.1515151,3900.72727234,696.484848415,4261.84848442,519.272727221,4442.15151471,193.696969678,4173.24242383,3387.6363633,4314.39393896,3057.93939363,4724.9696965,3243.39393907,4192.8181814,486.303030254,4385.48484805,4154.18181777,4218.06060564,20.606060604,4814.60606012,3272.24242392,4417.42424198,78.3030302952,42.0,42.0,?
2017-08-07 12:06:35.515109,4525.09090864,3729.69696932,4281.424242,4154.18181777,3881.66666628,515.1515151,3907.93939355,696.484848415,4261.84848442,519.272727221,4442.66666622,193.696969678,4182.5151511,3387.6363633,4321.09090866,3057.93939363,4727.54545407,3243.39393907,4200.03030261,486.303030254,4384.96969653,4154.18181777,4222.69696927,20.606060604,4813.06060558,3272.24242392,4422.57575713,78.3030302952,42.0,42.0,?
2017-08-07 12:06:35.523971,4525.60606015,3729.69696932,4280.90909048,4154.18181777,3880.12121173,515.1515151,3905.36363597,696.484848415,4254.63636321,519.272727221,4442.15151471,193.696969678,4179.93939352,3387.6363633,4321.60606017,3057.93939363,4727.54545407,3243.39393907,4194.87878746,486.303030254,4381.36363593,4154.18181777,4222.18181776,20.606060604,4809.45454497,3272.24242392,4422.06060562,78.3030302952,42.0,42.0,?
2017-08-07 12:06:35.532790,4528.18181773,3729.69696932,4283.99999957,4154.18181777,3883.21212082,515.1515151,3902.27272688,696.484848415,4253.09090867,519.272727221,4438.5454541,193.696969678,4160.36363595,3387.6363633,4313.36363593,3057.93939363,4722.90909044,3243.39393907,4190.24242382,486.303030254,4380.3333329,4154.18181777,4219.60606018,20.606060604,4808.42424194,3272.24242392,4417.9393935,78.3030302952,42.0,42.0,?
2017-08-07 12:06:35.545258,4532.30302985,3729.69696932,4281.93939351,4154.18181777,3884.75757537,515.1515151,3908.96969658,696.484848415,4262.87878745,519.272727221,4438.5454541,193.696969678,4152.63636322,3387.6363633,4306.66666624,3057.93939363,4727.03030256,3243.39393907,4194.87878746,486.303030254,4388.06060562,4154.18181777,4222.18181776,20.606060604,4813.57575709,3272.24242392,4420.51515107,78.3030302952,42.0,42.0,?
2017-08-07 12:06:35.550252,4530.24242379,3729.69696932,4273.69696927,4154.18181777,3882.69696931,515.1515151,3908.45454506,696.484848415,4266.99999957,519.272727221,4442.66666622,193.696969678,4162.42424201,3387.6363633,4310.78787836,3057.93939363,4732.69696922,3243.39393907,4196.424242,486.303030254,4392.69696926,4154.18181777,4224.24242382,20.606060604,4815.12121164,3272.24242392,4428.75757531,78.3030302952,42.0,42.0,?
2017-08-07 12:06:35.563558,4528.18181773,3729.69696932,4273.18181775,4154.18181777,3883.72727234,515.1515151,3906.393939,696.484848415,4269.06060563,519.272727221,4451.42424198,193.696969678,4183.54545413,3387.6363633,4331.39393896,3057.93939363,4729.60606013,3243.39393907,4194.36363594,486.303030254,4382.39393896,4154.18181777,4218.57575715,20.606060604,4815.12121164,3272.24242392,4429.78787834,78.3030302952,42.0,42.0,?
2017-08-07 12:06:35.570019,4526.12121167,3729.69696932,4281.424242,4154.18181777,3888.36363597,515.1515151,3913.0909087,696.484848415,4265.96969654,519.272727221,4445.75757531,193.696969678,4187.15151473,3387.6363633,4330.36363593,3057.93939363,4730.12121165,3243.39393907,4196.93939352,486.303030254,4385.48484805,4154.18181777,4220.63636321,20.606060604,4814.60606012,3272.24242392,4430.81818138,78.3030302952,42.0,42.0,?
2017-08-07 12:06:35.571253,4526.12121167,3729.69696932,4281.424242,4154.18181777,3888.36363597,515.1515151,3913.0909087,696.484848415,4262.87878745,519.272727221,4445.75757531,193.696969678,4187.15151473,3387.6363633,4330.36363593,3057.93939363,4730.12121165,3243.39393907,4196.93939352,486.303030254,4385.48484805,4154.18181777,4220.63636321,20.606060604,4814.60606012,3272.24242392,4430.81818138,78.3030302952,42.0,42.0,?
2017-08-07 12:06:35.582183,4533.8484844,3729.69696932,4280.39393897,4154.18181777,3888.36363597,515.1515151,3912.06060567,696.484848415,4263.39393897,519.272727221,4438.03030259,193.696969678,4188.18181776,3387.6363633,4335.51515108,3057.93939363,4738.8787874,3243.39393907,4208.27272685,486.303030254,4395.78787835,4154.18181777,4238.66666624,20.606060604,4819.24242376,3272.24242392,4436.48484804,78.3030302952,42.0,42.0,?
2017-08-07 12:06:35.585679,4533.8484844,3729.69696932,4280.39393897,4154.18181777,3888.36363597,515.1515151,3912.06060567,696.484848415,4263.39393897,519.272727221,4438.03030259,193.696969678,4188.18181776,3387.6363633,4335.51515108,3057.93939363,4738.8787874,3243.39393907,4208.27272685,486.303030254,4395.78787835,4154.18181777,4238.66666624,20.606060604,4819.24242376,3272.24242392,4436.48484804,78.3030302952,42.0,42.0,?
2017-08-07 12:06:35.593019,4533.33333288,3729.69696932,4269.57575715,4154.18181777,3887.84848446,515.1515151,3913.0909087,696.484848415,4257.7272723,519.272727221,4429.27272683,193.696969678,4179.42424201,3387.6363633,4329.3333329,3057.93939363,4741.9696965,3243.39393907,4205.18181776,486.303030254,4393.72727229,4154.18181777,4238.15151473,20.606060604,4818.72727225,3272.24242392,4433.90909047,78.3030302952,42.0,42.0,?
2017-08-07 12:06:35.601152,4526.63636318,3729.69696932,4263.39393897,4154.18181777,3885.27272688,515.1515151,3906.90909052,696.484848415,4251.54545412,519.272727221,4423.60606016,193.696969678,4161.90909049,3387.6363633,4314.39393896,3057.93939363,4742.48484801,3243.39393907,4201.57575716,486.303030254,4387.54545411,4154.18181777,4228.36363594,20.606060604,4809.96969649,3272.24242392,4428.2424238,78.3030302952,42.0,42.0,?
2017-08-07 12:06:35.608336,4521.48484803,3729.69696932,4265.96969654,4154.18181777,3879.60606022,515.1515151,3901.75757537,696.484848415,4256.69696927,519.272727221,4430.81818138,193.696969678,4159.84848443,3387.6363633,4313.87878745,3057.93939363,4740.42424195,3243.39393907,4192.8181814,486.303030254,4380.3333329,4154.18181777,4219.09090867,20.606060604,4799.66666619,3272.24242392,4418.96969653,78.3030302952,42.0,42.0,?
2017-08-07 12:06:35.616190,4519.93939349,3729.69696932,4263.39393897,4154.18181777,3877.03030264,515.1515151,3900.21212082,696.484848415,4265.96969654,519.272727221,4442.15151471,193.696969678,4170.66666625,3387.6363633,4324.18181775,3057.93939363,4742.99999953,3243.39393907,4184.57575716,486.303030254,4376.21212077,4154.18181777,4215.99999958,20.606060604,4798.12121164,3272.24242392,4412.78787835,78.3030302952,42.0,42.0,?
2017-08-07 12:06:35.626612,4524.06060561,3729.69696932,4262.36363594,4154.18181777,3882.69696931,515.1515151,3900.21212082,696.484848415,4266.48484806,519.272727221,4447.81818137,193.696969678,4178.90909049,3387.6363633,4327.27272684,3057.93939363,4748.15151468,3243.39393907,4192.30302988,486.303030254,4383.9393935,4154.18181777,4219.09090867,20.606060604,4807.39393891,3272.24242392,4418.96969653,78.3030302952,42.0,42.0,?
2017-08-07 12:06:35.637903,4533.8484844,3729.69696932,4275.24242381,4154.18181777,3887.33333294,515.1515151,3905.87878749,696.484848415,4265.96969654,519.272727221,4450.39393895,193.696969678,4185.60606019,3387.6363633,4323.66666623,3057.93939363,4750.72727225,3243.39393907,4202.60606019,486.303030254,4399.39393895,4154.18181777,4228.87878746,20.606060604,4820.27272679,3272.24242392,4431.84848441,78.3030302952,42.0,42.0,?
2017-08-07 12:06:35.643077,4537.96969652,3729.69696932,4282.45454503,4154.18181777,3885.7878784,515.1515151,3910.51515112,696.484848415,4270.09090866,519.272727221,4449.87878743,193.696969678,4190.24242382,3387.6363633,4323.66666623,3057.93939363,4750.21212074,3243.39393907,4197.45454503,486.303030254,4401.96969653,4154.18181777,4232.48484806,20.606060604,4823.36363588,3272.24242392,4436.48484804,78.3030302952,42.0,42.0,?
2017-08-07 12:06:35.647467,4533.33333288,3729.69696932,4272.66666624,4154.18181777,3882.18181779,515.1515151,3908.96969658,696.484848415,4270.09090866,519.272727221,4449.87878743,193.696969678,4183.54545413,3387.6363633,4326.24242381,3057.93939363,4751.75757528,3243.39393907,4192.8181814,486.303030254,4390.6363632,4154.18181777,4226.30302988,20.606060604,4819.75757528,3272.24242392,4429.27272683,78.3030302952,42.0,42.0,?
2017-08-07 12:06:35.655371,4528.18181773,3729.69696932,4264.93939351,4154.18181777,3878.06060567,515.1515151,3907.42424203,696.484848415,4265.45454503,519.272727221,4448.8484844,193.696969678,4174.27272686,3387.6363633,4321.60606017,3057.93939363,4753.30302983,3243.39393907,4195.39393897,486.303030254,4385.99999956,4154.18181777,4225.27272685,20.606060604,4816.15151467,3272.24242392,4424.12121168,78.3030302952,42.0,42.0,?
2017-08-07 12:06:35.664243,4527.66666621,3729.69696932,4269.57575715,4154.18181777,3874.96969658,515.1515151,3904.84848446,696.484848415,4263.39393897,519.272727221,4444.72727228,193.696969678,4169.63636322,3387.6363633,4316.45454502,3057.93939363,4753.81818134,3243.39393907,4194.36363594,486.303030254,4391.15151471,4154.18181777,4231.96969655,20.606060604,4813.57575709,3272.24242392,4425.66666622,78.3030302952,42.0,42.0,?
2017-08-07 12:06:35.673276,4529.72727227,3729.69696932,4269.06060563,4154.18181777,3873.93939355,515.1515151,3898.66666628,696.484848415,4264.424242,519.272727221,4443.69696925,193.696969678,4172.72727231,3387.6363633,4320.06060563,3057.93939363,4755.8787874,3243.39393907,4196.93939352,486.303030254,4396.30302986,4154.18181777,4233.51515109,20.606060604,4816.15151467,3272.24242392,4427.72727228,78.3030302952,42.0,42.0,?
2017-08-07 12:06:35.679747,4532.30302985,3729.69696932,4264.93939351,4154.18181777,3872.39393901,515.1515151,3895.06060567,696.484848415,4267.51515109,519.272727221,4448.8484844,193.696969678,4183.54545413,3387.6363633,4328.81818139,3057.93939363,4756.39393892,3243.39393907,4199.5151511,486.303030254,4398.36363592,4154.18181777,4232.48484806,20.606060604,4820.78787831,3272.24242392,4427.72727228,78.3030302952,42.0,42.0,?
2017-08-07 12:06:35.691741,4529.72727227,3729.69696932,4268.54545412,4154.18181777,3873.93939355,515.1515151,3904.84848446,696.484848415,4270.60606018,519.272727221,4461.21212077,193.696969678,4189.21212079,3387.6363633,4336.54545411,3057.93939363,4763.09090861,3243.39393907,4197.45454503,486.303030254,4394.2424238,4154.18181777,4235.57575715,20.606060604,4816.66666619,3272.24242392,4424.63636319,78.3030302952,42.0,42.0,?
2017-08-07 12:06:35.696305,4529.72727227,3729.69696932,4268.54545412,4154.18181777,3873.93939355,515.1515151,3904.84848446,696.484848415,4270.60606018,519.272727221,4461.21212077,193.696969678,4189.21212079,3387.6363633,4336.54545411,3057.93939363,4763.09090861,3243.39393907,4197.45454503,486.303030254,4394.2424238,4154.18181777,4235.57575715,20.606060604,4816.66666619,3272.24242392,4424.63636319,78.3030302952,42.0,42.0,?
2017-08-07 12:06:35.708950,4535.90909046,3729.69696932,4276.78787836,4154.18181777,3878.57575719,515.1515151,3905.87878749,696.484848415,4277.81818139,519.272727221,4463.27272683,193.696969678,4204.15151473,3387.6363633,4337.57575714,3057.93939363,4765.66666619,3243.39393907,4204.66666625,486.303030254,4394.75757532,4154.18181777,4235.57575715,20.606060604,4816.15151467,3272.24242392,4426.18181774,78.3030302952,42.0,42.0,?
2017-08-07 12:06:35.714797,4541.57575712,3729.69696932,4285.0303026,4154.18181777,3878.57575719,515.1515151,3908.45454506,696.484848415,4281.424242,519.272727221,4466.87878743,193.696969678,4204.66666625,3387.6363633,4340.66666623,3057.93939363,4766.18181771,3243.39393907,4202.09090867,486.303030254,4400.42424198,4154.18181777,4234.54545412,20.606060604,4822.84848437,3272.24242392,4434.42424198,78.3030302952,42.0,42.0,?
2017-08-07 12:06:35.718612,4541.57575712,3729.69696932,4285.0303026,4154.18181777,3878.57575719,515.1515151,3908.45454506,696.484848415,4281.424242,519.272727221,4466.87878743,193.696969678,4204.66666625,3387.6363633,4340.66666623,3057.93939363,4766.18181771,3243.39393907,4202.09090867,486.303030254,4400.42424198,4154.18181777,4234.54545412,20.606060604,4822.84848437,3272.24242392,4434.42424198,78.3030302952,42.0,42.0,?
2017-08-07 12:06:35.726089,4540.03030258,3729.69696932,4283.48484806,4154.18181777,3882.69696931,515.1515151,3902.27272688,696.484848415,4274.7272723,519.272727221,4468.42424198,193.696969678,4183.54545413,3387.6363633,4331.90909048,3057.93939363,4766.69696922,3243.39393907,4206.72727231,486.303030254,4406.09090865,4154.18181777,4234.54545412,20.606060604,4830.57575709,3272.24242392,4438.5454541,78.3030302952,42.0,42.0,?
2017-08-07 12:06:35.734032,4534.87878743,3729.69696932,4278.84848442,4154.18181777,3879.60606022,515.1515151,3895.06060567,696.484848415,4272.66666624,519.272727221,4458.12121168,193.696969678,4171.69696928,3387.6363633,4323.15151472,3057.93939363,4762.06060558,3243.39393907,4202.09090867,486.303030254,4399.90909047,4154.18181777,4234.54545412,20.606060604,4826.45454497,3272.24242392,4431.33333289,78.3030302952,42.0,42.0,?
2017-08-07 12:06:35.742051,4528.18181773,3729.69696932,4273.18181775,4154.18181777,3872.90909052,515.1515151,3897.12121173,696.484848415,4272.66666624,519.272727221,4450.90909046,193.696969678,4179.42424201,3387.6363633,4326.24242381,3057.93939363,4764.12121164,3243.39393907,4192.30302988,486.303030254,4389.09090865,4154.18181777,4231.45454503,20.606060604,4815.12121164,3272.24242392,4420.51515107,78.3030302952,42.0,42.0,?
2017-08-07 12:06:35.749865,4526.63636318,3729.69696932,4271.63636321,4154.18181777,3871.87878749,515.1515151,3897.63636325,696.484848415,4269.06060563,519.272727221,4458.63636319,193.696969678,4190.24242382,3387.6363633,4336.54545411,3057.93939363,4770.81818134,3243.39393907,4193.33333291,486.303030254,4386.51515108,4154.18181777,4228.87878746,20.606060604,4809.96969649,3272.24242392,4417.42424198,78.3030302952,42.0,42.0,?
2017-08-07 12:06:35.769729,4534.87878743,3729.69696932,4279.87878745,4154.18181777,3880.63636325,515.1515151,3896.60606022,696.484848415,4270.60606018,519.272727221,4467.90909046,193.696969678,4195.90909049,3387.6363633,4342.72727229,3057.93939363,4770.81818134,3243.39393907,4204.15151473,486.303030254,4396.30302986,4154.18181777,4238.66666624,20.606060604,4817.69696922,3272.24242392,4424.63636319,78.3030302952,42.0,42.0,?
2017-08-07 12:06:35.770080,4543.12121167,3729.69696932,4283.99999957,4154.18181777,3885.27272688,515.1515151,3900.21212082,696.484848415,4270.60606018,519.272727221,4460.69696925,193.696969678,4195.90909049,3387.6363633,4340.15151472,3057.93939363,4771.84848437,3243.39393907,4209.30302988,486.303030254,4407.6363632,4154.18181777,4249.48484806,20.606060604,4831.09090861,3272.24242392,4433.90909047,78.3030302952,42.0,42.0,?
2017-08-07 12:06:35.774708,4544.1515147,3729.69696932,4279.87878745,4154.18181777,3880.63636325,515.1515151,3899.69696931,696.484848415,4266.99999957,519.272727221,4455.5454541,193.696969678,4196.93939352,3387.6363633,4336.0303026,3057.93939363,4775.96969649,3243.39393907,4205.18181776,486.303030254,4409.18181774,4154.18181777,4244.84848442,20.606060604,4835.21212073,3272.24242392,4434.9393935,78.3030302952,42.0,42.0,?
2017-08-07 12:06:35.779997,4542.60606015,3729.69696932,4281.93939351,4154.18181777,3879.0909087,515.1515151,3897.63636325,696.484848415,4267.51515109,519.272727221,4459.15151471,193.696969678,4196.93939352,3387.6363633,4338.09090866,3057.93939363,4771.33333286,3243.39393907,4202.09090867,486.303030254,4407.12121168,4154.18181777,4237.63636321,20.606060604,4833.15151467,3272.24242392,4430.30302986,78.3030302952,42.0,42.0,?
2017-08-07 12:06:35.788640,4541.57575712,3729.69696932,4286.57575715,4154.18181777,3880.12121173,515.1515151,3897.12121173,696.484848415,4268.54545412,519.272727221,4456.57575713,193.696969678,4190.75757534,3387.6363633,4333.96969654,3057.93939363,4765.66666619,3243.39393907,4202.09090867,486.303030254,4405.57575714,4154.18181777,4237.1212117,20.606060604,4833.15151467,3272.24242392,4430.81818138,78.3030302952,42.0,42.0,?
2017-08-07 12:06:35.799250,4544.1515147,3729.69696932,4286.57575715,4154.18181777,3880.63636325,515.1515151,3898.15151476,696.484848415,4265.96969654,519.272727221,4457.09090865,193.696969678,4186.63636322,3387.6363633,4328.30302987,3057.93939363,4767.72727225,3243.39393907,4200.54545413,486.303030254,4402.99999956,4154.18181777,4237.1212117,20.606060604,4829.54545406,3272.24242392,4434.42424198,78.3030302952,42.0,42.0,?
2017-08-07 12:06:35.804955,4548.78787833,3729.69696932,4286.57575715,4154.18181777,3881.15151476,515.1515151,3899.18181779,696.484848415,4266.48484806,519.272727221,4458.63636319,193.696969678,4184.57575716,3387.6363633,4329.84848442,3057.93939363,4769.2727268,3243.39393907,4194.87878746,486.303030254,4404.03030259,4154.18181777,4233.51515109,20.606060604,4826.96969649,3272.24242392,4430.81818138,78.3030302952,42.0,42.0,?
2017-08-07 12:06:35.812318,4548.27272682,3729.69696932,4286.06060563,4154.18181777,3879.60606022,515.1515151,3895.57575719,696.484848415,4269.06060563,519.272727221,4453.48484804,193.696969678,4182.5151511,3387.6363633,4329.84848442,3057.93939363,4766.18181771,3243.39393907,4188.69696928,486.303030254,4405.57575714,4154.18181777,4226.8181814,20.606060604,4830.06060558,3272.24242392,4424.63636319,78.3030302952,42.0,42.0,?
2017-08-07 12:06:35.822304,4543.12121167,3729.69696932,4284.51515109,4154.18181777,3872.90909052,515.1515151,3893.51515113,696.484848415,4269.06060563,519.272727221,4455.03030258,193.696969678,4181.48484807,3387.6363633,4322.12121169,3057.93939363,4762.06060558,3243.39393907,4187.66666625,486.303030254,4400.42424198,4154.18181777,4219.09090867,20.606060604,4828.51515103,3272.24242392,4426.18181774,78.3030302952,42.0,42.0,?
2017-08-07 12:06:35.827243,4538.48484803,3729.69696932,4283.99999957,4154.18181777,3866.72727234,515.1515151,3894.54545416,696.484848415,4265.45454503,519.272727221,4459.15151471,193.696969678,4180.45454504,3387.6363633,4316.96969654,3057.93939363,4759.48484801,3243.39393907,4189.72727231,486.303030254,4398.36363592,4154.18181777,4220.1212117,20.606060604,4823.36363588,3272.24242392,4426.69696925,78.3030302952,42.0,42.0,?
2017-08-07 12:06:35.836670,4532.30302985,3729.69696932,4281.93939351,4154.18181777,3863.63636325,515.1515151,3894.03030264,696.484848415,4262.87878745,519.272727221,4451.93939349,193.696969678,4178.90909049,3387.6363633,4316.96969654,3057.93939363,4761.54545407,3243.39393907,4186.1212117,486.303030254,4396.81818138,4154.18181777,4222.69696927,20.606060604,4815.63636315,3272.24242392,4417.9393935,78.3030302952,42.0,42.0,?
2017-08-07 12:06:35.847749,4527.1515147,3729.69696932,4280.39393897,4154.18181777,3865.69696931,515.1515151,3891.96969658,696.484848415,4263.90909048,519.272727221,4446.78787834,193.696969678,4182.5151511,3387.6363633,4318.51515108,3057.93939363,4762.5757571,3243.39393907,4179.42424201,486.303030254,4384.96969653,4154.18181777,4218.06060564,20.606060604,4805.33333285,3272.24242392,4412.78787835,78.3030302952,42.0,42.0,?
2017-08-07 12:06:35.853850,4540.54545409,3729.69696932,4286.06060563,4154.18181777,3873.42424204,515.1515151,3896.0909087,696.484848415,4264.424242,519.272727221,4452.96969652,193.696969678,4187.15151473,3387.6363633,4326.75757532,3057.93939363,4763.09090861,3243.39393907,4189.21212079,486.303030254,4391.66666623,4154.18181777,4229.90909049,20.606060604,4819.24242376,3272.24242392,4418.96969653,78.3030302952,42.0,42.0,?
2017-08-07 12:06:35.863193,4540.54545409,3729.69696932,4286.06060563,4154.18181777,3873.42424204,515.1515151,3896.0909087,696.484848415,4264.424242,519.272727221,4452.96969652,193.696969678,4187.15151473,3387.6363633,4326.75757532,3057.93939363,4763.09090861,3243.39393907,4189.21212079,486.303030254,4391.66666623,4154.18181777,4229.90909049,20.606060604,4819.24242376,3272.24242392,4418.96969653,78.3030302952,42.0,42.0,?
2017-08-07 12:06:35.872368,4538.99999955,3729.69696932,4282.96969654,4154.18181777,3872.90909052,515.1515151,3895.06060567,696.484848415,4266.48484806,519.272727221,4452.45454501,193.696969678,4188.69696928,3387.6363633,4331.90909048,3057.93939363,4763.09090861,3243.39393907,4194.36363594,486.303030254,4402.48484804,4154.18181777,4237.63636321,20.606060604,4822.84848437,3272.24242392,4422.57575713,78.3030302952,42.0,42.0,?
2017-08-07 12:06:35.876522,4537.96969652,3729.69696932,4291.21212078,4154.18181777,3878.57575719,515.1515151,3896.0909087,696.484848415,4266.99999957,519.272727221,4455.5454541,193.696969678,4189.72727231,3387.6363633,4334.48484805,3057.93939363,4756.90909043,3243.39393907,4197.96969655,486.303030254,4402.99999956,4154.18181777,4236.60606018,20.606060604,4825.42424194,3272.24242392,4426.69696925,78.3030302952,42.0,42.0,?
2017-08-07 12:06:35.882837,4538.99999955,3729.69696932,4299.96969654,4154.18181777,3879.0909087,515.1515151,3897.63636325,692.363636294,4265.96969654,519.272727221,4455.03030258,193.696969678,4190.75757534,3387.6363633,4332.42424199,3057.93939363,4753.81818134,3243.39393907,4197.45454503,486.303030254,4399.39393895,4154.18181777,4231.45454503,20.606060604,4825.93939346,3272.24242392,4423.60606016,78.3030302952,42.0,42.0,?
2017-08-07 12:06:35.894937,4539.51515106,3729.69696932,4295.3333329,4154.18181777,3874.96969658,515.1515151,3896.0909087,692.363636294,4268.54545412,515.1515151,4451.42424198,193.696969678,4191.27272685,3387.6363633,4330.36363593,3057.93939363,4756.39393892,3243.39393907,4198.99999958,486.303030254,4396.30302986,4154.18181777,4226.30302988,20.606060604,4818.21212073,3272.24242392,4420.51515107,78.3030302952,42.0,42.0,?
2017-08-07 12:06:35.900164,4543.63636318,3729.69696932,4298.93939351,4154.18181777,3882.69696931,515.1515151,3897.63636325,692.363636294,4266.48484806,515.1515151,4458.63636319,181.333333315,4190.24242382,3391.75757542,4333.96969654,3057.93939363,4757.93939346,3243.39393907,4196.93939352,486.303030254,4393.72727229,4154.18181777,4225.78787837,20.606060604,4819.75757528,3272.24242392,4424.12121168,78.3030302952,42.0,42.0,?
2017-08-07 12:06:35.906669,4543.63636318,3729.69696932,4298.93939351,4154.18181777,3882.69696931,515.1515151,3897.63636325,692.363636294,4266.48484806,515.1515151,4458.63636319,181.333333315,4190.24242382,3391.75757542,4333.96969654,3057.93939363,4757.93939346,3243.39393907,4196.93939352,486.303030254,4393.72727229,4154.18181777,4225.78787837,20.606060604,4819.75757528,3272.24242392,4424.12121168,78.3030302952,42.0,42.0,?
2017-08-07 12:06:35.912964,4542.09090864,3729.69696932,4298.42424199,4154.18181777,3878.06060567,515.1515151,3897.12121173,692.363636294,4265.45454503,515.1515151,4448.8484844,181.333333315,4186.1212117,3391.75757542,4326.75757532,3049.69696939,4757.42424195,3243.39393907,4191.78787837,486.303030254,4394.75757532,4154.18181777,4226.30302988,20.606060604,4816.15151467,3272.24242392,4417.42424198,78.3030302952,42.0,42.0,?
2017-08-07 12:06:35.924608,4533.33333288,3729.69696932,4289.66666624,4154.18181777,3872.39393901,515.1515151,3892.99999961,692.363636294,4263.39393897,515.1515151,4439.06060562,181.333333315,4174.78787837,3391.75757542,4319.0303026,3049.69696939,4752.2727268,3251.63636331,4188.69696928,486.303030254,4388.57575714,4154.18181777,4221.66666624,20.606060604,4807.39393891,3272.24242392,4414.33333289,78.3030302952,42.0,42.0,?
2017-08-07 12:06:35.932318,4524.57575712,3729.69696932,4280.90909048,4154.18181777,3865.1818178,515.1515151,3892.4848481,692.363636294,4260.30302988,515.1515151,4442.15151471,181.333333315,4170.15151473,3391.75757542,4313.36363593,3049.69696939,4749.69696922,3251.63636331,4176.84848443,490.424242375,4372.60606017,4154.18181777,4208.78787837,20.606060604,4797.60606013,3272.24242392,4407.12121168,78.3030302952,42.0,42.0,?
2017-08-07 12:06:35.937973,4520.454545,3729.69696932,4275.24242381,4154.18181777,3857.96969658,515.1515151,3885.7878784,692.363636294,4259.78787836,515.1515151,4444.72727228,181.333333315,4178.39393898,3391.75757542,4313.87878745,3049.69696939,4748.15151468,3251.63636331,4164.99999958,490.424242375,4359.72727229,4154.18181777,4198.48484806,20.606060604,4791.93939346,3272.24242392,4393.72727229,78.3030302952,42.0,42.0,?
2017-08-07 12:06:35.946906,4525.09090864,3729.69696932,4278.84848442,4154.18181777,3863.12121173,515.1515151,3881.66666628,692.363636294,4261.33333291,515.1515151,4443.69696925,181.333333315,4187.66666625,3391.75757542,4325.21212078,3049.69696939,4752.2727268,3251.63636331,4173.24242383,490.424242375,4365.90909047,4154.18181777,4207.24242382,24.7272727248,4795.54545407,3272.24242392,4398.36363592,78.3030302952,42.0,42.0,?
2017-08-07 12:06:35.958226,4532.81818136,3729.69696932,4285.54545412,4154.18181777,3873.42424204,515.1515151,3887.33333294,692.363636294,4263.39393897,515.1515151,4447.30302986,181.333333315,4191.27272685,3391.75757542,4332.93939351,3049.69696939,4757.42424195,3251.63636331,4190.75757534,490.424242375,4383.9393935,4154.18181777,4221.66666624,24.7272727248,4807.39393891,3268.12121179,4415.36363592,78.3030302952,42.0,42.0,?
2017-08-07 12:06:35.961537,4535.39393894,3729.69696932,4283.99999957,4154.18181777,3873.42424204,515.1515151,3888.36363597,692.363636294,4268.54545412,515.1515151,4448.33333289,181.333333315,4190.24242382,3391.75757542,4326.75757532,3049.69696939,4758.45454498,3251.63636331,4195.90909049,490.424242375,4392.69696926,4154.18181777,4221.66666624,24.7272727248,4815.63636315,3268.12121179,4416.90909047,78.3030302952,42.0,42.0,?
2017-08-07 12:06:35.974167,4533.8484844,3729.69696932,4283.48484806,4154.18181777,3871.36363598,515.1515151,3887.33333294,692.363636294,4268.54545412,515.1515151,4444.72727228,181.333333315,4189.72727231,3391.75757542,4323.15151472,3049.69696939,4756.39393892,3251.63636331,4188.69696928,490.424242375,4388.06060562,4154.18181777,4218.06060564,24.7272727248,4810.484848,3268.12121179,4414.33333289,78.3030302952,42.0,42.0,?
2017-08-07 12:06:35.978413,4534.87878743,3729.69696932,4290.18181775,4154.18181777,3875.99999961,515.1515151,3893.51515113,692.363636294,4257.21212079,515.1515151,4445.75757531,181.333333315,4192.30302988,3391.75757542,4327.27272684,3049.69696939,4753.81818134,3251.63636331,4181.48484807,490.424242375,4384.96969653,4154.18181777,4216.51515109,24.7272727248,4805.84848437,3268.12121179,4416.39393895,78.3030302952,42.0,42.0,?
2017-08-07 12:06:35.987109,4538.99999955,3729.69696932,4293.78787836,4154.18181777,3878.57575719,515.1515151,3898.15151476,692.363636294,4254.63636321,515.1515151,4446.27272683,181.333333315,4192.8181814,3391.75757542,4329.84848442,3049.69696939,4760.51515104,3251.63636331,4188.18181776,490.424242375,4394.2424238,4154.18181777,4216.51515109,24.7272727248,4813.06060558,3268.12121179,4417.9393935,78.3030302952,42.0,42.0,?
2017-08-07 12:06:35.991518,4546.21212076,3729.69696932,4290.18181775,4154.18181777,3878.57575719,515.1515151,3895.06060567,692.363636294,4257.21212079,515.1515151,4439.06060562,181.333333315,4191.78787837,3391.75757542,4335.51515108,3049.69696939,4772.36363589,3251.63636331,4200.54545413,490.424242375,4405.57575714,4154.18181777,4227.84848443,24.7272727248,4824.39393891,3268.12121179,4422.06060562,78.3030302952,42.0,42.0,?
2017-08-07 12:06:35.999406,4548.78787833,3729.69696932,4288.12121169,4154.18181777,3874.96969658,515.1515151,3890.93939355,692.363636294,4255.15151473,515.1515151,4436.99999956,181.333333315,4190.75757534,3391.75757542,4337.57575714,3049.69696939,4774.93939346,3251.63636331,4198.48484806,490.424242375,4402.99999956,4154.18181777,4237.1212117,24.7272727248,4822.84848437,3268.12121179,4427.72727228,78.3030302952,42.0,42.0,?
2017-08-07 12:06:36.009473,4542.09090864,3729.69696932,4286.57575715,4154.18181777,3874.45454507,515.1515151,3890.42424204,692.363636294,4257.21212079,515.1515151,4440.60606016,181.333333315,4189.72727231,3391.75757542,4332.93939351,3049.69696939,4771.33333286,3251.63636331,4189.21212079,490.424242375,4392.18181774,4154.18181777,4226.8181814,24.7272727248,4811.51515103,3268.12121179,4421.5454541,78.3030302952,42.0,42.0,?
2017-08-07 12:06:36.015100,4537.454545,3729.69696932,4283.48484806,4154.18181777,3877.03030264,515.1515151,3892.4848481,692.363636294,4264.424242,515.1515151,4440.09090865,181.333333315,4187.66666625,3391.75757542,4331.90909048,3049.69696939,4771.84848437,3251.63636331,4190.24242382,490.424242375,4391.66666623,4154.18181777,4218.57575715,24.7272727248,4805.84848437,3268.12121179,4411.2424238,78.3030302952,42.0,42.0,?
2017-08-07 12:06:36.026924,4538.99999955,3729.69696932,4282.45454503,4154.18181777,3873.93939355,515.1515151,3897.12121173,692.363636294,4268.54545412,515.1515151,4436.99999956,181.333333315,4186.63636322,3391.75757542,4334.48484805,3049.69696939,4771.33333286,3251.63636331,4196.424242,490.424242375,4398.36363592,4154.18181777,4223.7272723,24.7272727248,4810.99999952,3268.12121179,4416.39393895,78.3030302952,42.0,42.0,?
2017-08-07 12:06:36.032095,4535.39393894,3729.69696932,4283.99999957,4154.18181777,3869.81818143,515.1515151,3894.54545416,692.363636294,4269.57575715,515.1515151,4438.5454541,181.333333315,4185.60606019,3391.75757542,4330.87878745,3049.69696939,4770.81818134,3251.63636331,4195.90909049,490.424242375,4396.30302986,4154.18181777,4222.18181776,24.7272727248,4815.63636315,3268.12121179,4422.06060562,78.3030302952,42.0,42.0,?
2017-08-07 12:06:36.040779,4531.27272682,3729.69696932,4281.424242,4154.18181777,3875.4848481,515.1515151,3885.7878784,692.363636294,4265.96969654,515.1515151,4441.63636319,181.333333315,4187.66666625,3391.75757542,4327.27272684,3049.69696939,4772.36363589,3251.63636331,4192.8181814,490.424242375,4388.06060562,4154.18181777,4209.8181814,24.7272727248,4809.45454497,3268.12121179,4415.87878744,78.3030302952,42.0,42.0,?
2017-08-07 12:06:36.048191,4534.36363591,3729.69696932,4281.424242,4154.18181777,3873.93939355,515.1515151,3886.81818143,692.363636294,4255.15151473,515.1515151,4440.60606016,181.333333315,4190.75757534,3391.75757542,4329.84848442,3049.69696939,4765.66666619,3251.63636331,4193.84848443,490.424242375,4385.99999956,4154.18181777,4203.63636322,24.7272727248,4805.84848437,3268.12121179,4412.78787835,78.3030302952,42.0,42.0,?
2017-08-07 12:06:36.056413,4536.42424197,3729.69696932,4281.93939351,4154.18181777,3862.60606022,515.1515151,3891.96969658,692.363636294,4253.60606018,515.1515151,4441.63636319,181.333333315,4188.18181776,3391.75757542,4331.39393896,3049.69696939,4760.51515104,3251.63636331,4195.90909049,490.424242375,4390.6363632,4154.18181777,4205.18181776,24.7272727248,4811.51515103,3268.12121179,4416.90909047,78.3030302952,42.0,42.0,?
2017-08-07 12:06:36.063823,4533.8484844,3729.69696932,4275.24242381,4154.18181777,3864.15151477,515.1515151,3887.33333294,692.363636294,4265.96969654,515.1515151,4448.8484844,181.333333315,4184.57575716,3391.75757542,4329.84848442,3049.69696939,4763.09090861,3251.63636331,4190.24242382,490.424242375,4388.06060562,4154.18181777,4207.24242382,24.7272727248,4811.51515103,3268.12121179,4411.75757532,78.3030302952,42.0,42.0,?
2017-08-07 12:06:36.070390,4533.8484844,3729.69696932,4273.69696927,4154.18181777,3866.72727234,515.1515151,3882.18181779,692.363636294,4267.51515109,515.1515151,4450.39393895,181.333333315,4185.09090867,3391.75757542,4331.39393896,3049.69696939,4761.03030255,3251.63636331,4183.03030261,490.424242375,4382.39393896,4154.18181777,4204.15151473,24.7272727248,4805.33333285,3268.12121179,4405.06060562,78.3030302952,42.0,42.0,?
2017-08-07 12:06:36.077671,4534.36363591,3729.69696932,4280.39393897,4154.18181777,3865.69696931,515.1515151,3886.30302991,692.363636294,4263.90909048,515.1515151,4444.72727228,181.333333315,4189.72727231,3391.75757542,4334.99999957,3049.69696939,4755.8787874,3251.63636331,4185.60606019,490.424242375,4381.36363593,4154.18181777,4202.60606019,24.7272727248,4804.81818134,3268.12121179,4411.2424238,78.3030302952,42.0,42.0,?
2017-08-07 12:06:36.087961,4529.72727227,3729.69696932,4276.78787836,4154.18181777,3865.1818178,515.1515151,3886.81818143,692.363636294,4270.09090866,515.1515151,4444.72727228,181.333333315,4187.66666625,3391.75757542,4334.99999957,3049.69696939,4753.30302983,3251.63636331,4186.1212117,490.424242375,4381.87878744,4154.18181777,4206.21212079,24.7272727248,4805.33333285,3268.12121179,4412.78787835,78.3030302952,42.0,42.0,?
2017-08-07 12:06:36.094101,4526.63636318,3729.69696932,4267.51515109,4154.18181777,3862.60606022,515.1515151,3881.66666628,692.363636294,4268.0303026,515.1515151,4443.18181774,181.333333315,4177.87878746,3391.75757542,4327.78787836,3049.69696939,4750.72727225,3251.63636331,4174.78787837,490.424242375,4377.2424238,4154.18181777,4203.63636322,24.7272727248,4799.15151467,3268.12121179,4401.45454501,78.3030302952,42.0,42.0,?
2017-08-07 12:06:36.102517,4528.18181773,3729.69696932,4267.51515109,4154.18181777,3860.54545416,515.1515151,3881.66666628,692.363636294,4253.09090867,515.1515151,4431.84848441,181.333333315,4170.15151473,3391.75757542,4317.99999957,3049.69696939,4749.69696922,3251.63636331,4169.1212117,490.424242375,4373.12121168,4154.18181777,4192.8181814,24.7272727248,4797.60606013,3268.12121179,4402.48484804,78.3030302952,42.0,42.0,?
2017-08-07 12:06:36.110115,4528.69696924,3729.69696932,4271.12121169,4154.18181777,3864.66666628,515.1515151,3882.69696931,692.363636294,4254.1212117,515.1515151,4428.2424238,181.333333315,4171.69696928,3391.75757542,4320.06060563,3049.69696939,4750.21212074,3251.63636331,4171.18181776,490.424242375,4373.12121168,4154.18181777,4189.21212079,24.7272727248,4800.1818177,3268.12121179,4417.42424198,78.3030302952,42.0,42.0,?
2017-08-07 12:06:36.119463,4523.03030258,3729.69696932,4268.0303026,4154.18181777,3861.06060567,515.1515151,3883.72727234,692.363636294,4262.36363594,515.1515151,4434.9393935,181.333333315,4180.96969655,3391.75757542,4327.27272684,3049.69696939,4751.75757528,3251.63636331,4170.15151473,490.424242375,4373.12121168,4154.18181777,4197.45454503,24.7272727248,4797.60606013,3268.12121179,4422.06060562,78.3030302952,42.0,42.0,?
2017-08-07 12:06:36.125058,4517.36363591,3729.69696932,4260.30302988,4154.18181777,3852.81818143,515.1515151,3881.15151476,692.363636294,4258.24242382,515.1515151,4438.03030259,181.333333315,4186.1212117,3391.75757542,4325.72727229,3049.69696939,4752.78787831,3251.63636331,4167.57575716,490.424242375,4368.99999956,4154.18181777,4196.424242,24.7272727248,4790.90909043,3268.12121179,4416.90909047,78.3030302952,42.0,42.0,?
2017-08-07 12:06:36.137231,4518.90909046,3729.69696932,4256.18181776,4154.18181777,3856.93939355,515.1515151,3877.54545416,692.363636294,4257.21212079,515.1515151,4436.99999956,181.333333315,4180.45454504,3391.75757542,4322.12121169,3049.69696939,4752.78787831,3251.63636331,4168.60606019,490.424242375,4364.36363593,4154.18181777,4188.18181776,24.7272727248,4792.96969649,3268.12121179,4424.63636319,78.3030302952,42.0,42.0,?
2017-08-07 12:06:36.141396,4524.57575712,3729.69696932,4257.7272723,4154.18181777,3860.54545416,515.1515151,3881.66666628,692.363636294,4262.87878745,515.1515151,4440.09090865,181.333333315,4173.24242383,3391.75757542,4326.24242381,3049.69696939,4751.75757528,3251.63636331,4172.72727231,490.424242375,4368.99999956,4154.18181777,4190.24242382,24.7272727248,4799.15151467,3268.12121179,4439.06060562,78.3030302952,42.0,42.0,?
2017-08-07 12:06:36.148088,4525.09090864,3729.69696932,4256.69696927,4154.18181777,3858.99999961,515.1515151,3881.15151476,692.363636294,4267.51515109,515.1515151,4445.75757531,181.333333315,4181.99999958,3391.75757542,4333.96969654,3049.69696939,4754.84848437,3251.63636331,4175.30302989,490.424242375,4376.21212077,4154.18181777,4195.90909049,24.7272727248,4800.69696922,3268.12121179,4443.18181774,78.3030302952,42.0,42.0,?
2017-08-07 12:06:36.156817,4520.454545,3729.69696932,4251.54545412,4154.18181777,3857.45454507,515.1515151,3878.06060567,692.363636294,4269.57575715,515.1515151,4448.8484844,181.333333315,4188.69696928,3391.75757542,4333.45454502,3049.69696939,4756.90909043,3251.63636331,4172.72727231,490.424242375,4373.6363632,4154.18181777,4190.75757534,24.7272727248,4798.12121164,3268.12121179,4440.60606016,78.3030302952,42.0,42.0,?
2017-08-07 12:06:36.165958,4518.90909046,3729.69696932,4247.93939351,4154.18181777,3855.39393901,515.1515151,3880.63636325,692.363636294,4258.24242382,515.1515151,4441.63636319,181.333333315,4176.84848443,3391.75757542,4325.72727229,3049.69696939,4750.72727225,3251.63636331,4170.15151473,490.424242375,4366.42424199,4154.18181777,4185.60606019,24.7272727248,4790.90909043,3268.12121179,4440.09090865,78.3030302952,42.0,42.0,?
2017-08-07 12:06:36.171001,4521.48484803,3729.69696932,4244.33333291,4154.18181777,3855.90909052,515.1515151,3881.66666628,692.363636294,4248.96969654,515.1515151,4435.45454501,181.333333315,4169.63636322,3391.75757542,4317.48484805,3049.69696939,4745.5757571,3251.63636331,4170.66666625,490.424242375,4365.39393896,4154.18181777,4188.69696928,24.7272727248,4787.81818134,3268.12121179,4443.18181774,78.3030302952,42.0,42.0,?
2017-08-07 12:06:36.180599,4523.03030258,3729.69696932,4238.66666624,4154.18181777,3856.93939355,515.1515151,3878.06060567,692.363636294,4258.75757533,515.1515151,4435.96969653,181.333333315,4172.21212079,3391.75757542,4314.90909048,3049.69696939,4742.48484801,3251.63636331,4170.66666625,490.424242375,4370.54545411,4154.18181777,4188.69696928,24.7272727248,4794.51515104,3268.12121179,4443.69696925,78.3030302952,42.0,42.0,?
2017-08-07 12:06:36.189247,4524.57575712,3729.69696932,4237.1212117,4154.18181777,3857.45454507,515.1515151,3878.06060567,692.363636294,4259.27272685,515.1515151,4432.87878744,181.333333315,4173.24242383,3391.75757542,4315.42424199,3049.69696939,4739.39393892,3251.63636331,4175.30302989,490.424242375,4378.78787835,4154.18181777,4193.84848443,24.7272727248,4801.21212073,3268.12121179,4445.75757531,78.3030302952,42.0,42.0,?
2017-08-07 12:06:36.194952,4529.21212076,3729.69696932,4241.24242382,4154.18181777,3861.06060567,515.1515151,3880.12121173,692.363636294,4245.36363594,515.1515151,4427.72727228,181.333333315,4171.69696928,3391.75757542,4318.51515108,3049.69696939,4746.60606013,3251.63636331,4183.03030261,490.424242375,4383.42424199,4154.18181777,4206.21212079,24.7272727248,4805.33333285,3268.12121179,4453.99999955,78.3030302952,42.0,42.0,?
2017-08-07 12:06:36.204237,4529.21212076,3729.69696932,4246.90909048,4154.18181777,3868.27272689,515.1515151,3879.60606022,692.363636294,4245.36363594,515.1515151,4426.69696925,181.333333315,4170.66666625,3391.75757542,4321.09090866,3049.69696939,4754.84848437,3251.63636331,4182.5151511,490.424242375,4383.42424199,4154.18181777,4205.69696928,24.7272727248,4806.36363588,3268.12121179,4458.12121168,78.3030302952,42.0,42.0,?
2017-08-07 12:06:36.211940,4529.21212076,3729.69696932,4249.99999958,4154.18181777,3867.75757537,515.1515151,3882.69696931,692.363636294,4252.57575715,515.1515151,4432.87878744,181.333333315,4173.75757534,3391.75757542,4320.06060563,3049.69696939,4751.75757528,3251.63636331,4175.8181814,490.424242375,4381.87878744,4154.18181777,4195.90909049,24.7272727248,4803.78787831,3268.12121179,4457.09090865,78.3030302952,42.0,42.0,?
2017-08-07 12:06:36.219400,4533.8484844,3729.69696932,4250.51515109,4154.18181777,3867.24242386,515.1515151,3885.27272688,692.363636294,4254.1212117,515.1515151,4442.15151471,181.333333315,4181.48484807,3391.75757542,4319.0303026,3049.69696939,4749.18181771,3251.63636331,4176.84848443,490.424242375,4381.36363593,4154.18181777,4197.96969655,24.7272727248,4801.72727225,3268.12121179,4457.09090865,78.3030302952,42.0,42.0,?
2017-08-07 12:06:36.228798,4531.27272682,3729.69696932,4246.90909048,4154.18181777,3869.30302992,515.1515151,3880.63636325,692.363636294,4254.63636321,515.1515151,4445.75757531,181.333333315,4178.90909049,3391.75757542,4318.51515108,3049.69696939,4753.81818134,3251.63636331,4177.36363595,490.424242375,4381.36363593,4154.18181777,4201.57575716,24.7272727248,4802.75757528,3268.12121179,4455.03030258,78.3030302952,42.0,42.0,?
2017-08-07 12:06:36.237885,4523.03030258,3729.69696932,4237.1212117,4154.18181777,3861.06060567,515.1515151,3877.03030264,692.363636294,4252.06060564,515.1515151,4440.09090865,181.333333315,4172.72727231,3391.75757542,4313.87878745,3049.69696939,4752.2727268,3251.63636331,4170.66666625,490.424242375,4376.21212077,4154.18181777,4197.96969655,24.7272727248,4801.72727225,3268.12121179,4443.69696925,78.3030302952,42.0,42.0,?
2017-08-07 12:06:36.248661,4520.96969652,3729.69696932,4242.78787836,4154.18181777,3859.51515113,515.1515151,3883.21212082,692.363636294,4264.93939351,515.1515151,4442.15151471,181.333333315,4179.93939352,3391.75757542,4325.72727229,3049.69696939,4758.45454498,3251.63636331,4177.87878746,490.424242375,4375.18181774,4154.18181777,4204.66666625,24.7272727248,4801.21212073,3268.12121179,4447.30302986,78.3030302952,42.0,42.0,?
2017-08-07 12:06:36.252413,4520.96969652,3729.69696932,4242.78787836,4154.18181777,3859.51515113,515.1515151,3883.21212082,692.363636294,4264.93939351,515.1515151,4442.15151471,181.333333315,4179.93939352,3391.75757542,4325.72727229,3049.69696939,4758.45454498,3251.63636331,4177.87878746,490.424242375,4375.18181774,4154.18181777,4204.66666625,24.7272727248,4801.21212073,3268.12121179,4447.30302986,78.3030302952,42.0,42.0,?
2017-08-07 12:06:36.271416,4519.93939349,3729.69696932,4239.18181776,4154.18181777,3865.1818178,515.1515151,3881.15151476,692.363636294,4256.69696927,515.1515151,4444.72727228,181.333333315,4169.1212117,3391.75757542,4322.6363632,3049.69696939,4749.69696922,3251.63636331,4169.63636322,490.424242375,4371.57575714,4154.18181777,4191.27272685,24.7272727248,4793.99999952,3268.12121179,4442.15151471,78.3030302952,42.0,42.0,?
2017-08-07 12:06:36.271554,4515.30302985,3729.69696932,4233.51515109,4154.18181777,3846.63636325,515.1515151,3879.0909087,692.363636294,4249.99999958,515.1515151,4432.36363592,181.333333315,4164.48484807,3391.75757542,4310.78787836,3049.69696939,4749.18181771,3251.63636331,4166.03030261,490.424242375,4371.57575714,4154.18181777,4195.39393897,24.7272727248,4796.5757571,3268.12121179,4430.81818138,78.3030302952,42.0,42.0,?
2017-08-07 12:06:36.279502,4515.30302985,3729.69696932,4233.51515109,4154.18181777,3846.63636325,515.1515151,3879.0909087,692.363636294,4249.99999958,515.1515151,4432.36363592,181.333333315,4164.48484807,3391.75757542,4310.78787836,3049.69696939,4749.18181771,3251.63636331,4166.03030261,490.424242375,4371.57575714,4154.18181777,4195.39393897,24.7272727248,4796.5757571,3268.12121179,4430.81818138,78.3030302952,42.0,42.0,?
2017-08-07 12:06:36.293252,4520.96969652,3729.69696932,4244.33333291,4154.18181777,3858.4848481,515.1515151,3868.27272689,692.363636294,4251.54545412,515.1515151,4444.21212077,181.333333315,4173.24242383,3391.75757542,4313.36363593,3049.69696939,4746.09090862,3251.63636331,4162.93939352,490.424242375,4366.9393935,4154.18181777,4194.87878746,24.7272727248,4795.03030255,3268.12121179,4443.69696925,78.3030302952,42.0,42.0,?
2017-08-07 12:06:36.295189,4520.454545,3729.69696932,4245.36363594,4154.18181777,3858.4848481,515.1515151,3877.03030264,692.363636294,4249.48484806,515.1515151,4444.72727228,181.333333315,4173.75757534,3391.75757542,4310.27272684,3049.69696939,4739.39393892,3251.63636331,4155.72727231,490.424242375,4367.45454502,4154.18181777,4193.33333291,24.7272727248,4795.03030255,3268.12121179,4440.60606016,78.3030302952,42.0,42.0,?
2017-08-07 12:06:36.298122,4520.454545,3729.69696932,4245.36363594,4154.18181777,3858.4848481,515.1515151,3877.03030264,692.363636294,4249.48484806,515.1515151,4444.72727228,181.333333315,4173.75757534,3391.75757542,4310.27272684,3049.69696939,4739.39393892,3251.63636331,4155.72727231,490.424242375,4367.45454502,4154.18181777,4193.33333291,24.7272727248,4795.03030255,3268.12121179,4440.60606016,78.3030302952,42.0,42.0,?
2017-08-07 12:06:36.307887,4518.90909046,3729.69696932,4246.90909048,4154.18181777,3854.36363598,515.1515151,3880.12121173,692.363636294,4254.1212117,515.1515151,4441.63636319,181.333333315,4185.60606019,3391.75757542,4313.87878745,3049.69696939,4741.45454498,3251.63636331,4157.78787837,490.424242375,4366.42424199,4154.18181777,4197.96969655,24.7272727248,4797.60606013,3268.12121179,4438.5454541,78.3030302952,42.0,42.0,?
2017-08-07 12:06:36.312470,4521.48484803,3729.69696932,4247.93939351,4154.18181777,3855.90909052,515.1515151,3875.4848481,692.363636294,4254.1212117,515.1515151,4439.06060562,181.333333315,4183.03030261,3391.75757542,4318.51515108,3049.69696939,4742.48484801,3251.63636331,4161.90909049,490.424242375,4365.39393896,4154.18181777,4195.39393897,24.7272727248,4798.63636316,3268.12121179,4437.51515107,78.3030302952,42.0,42.0,?
2017-08-07 12:06:36.320190,4523.54545409,3729.69696932,4249.48484806,4154.18181777,3856.42424204,515.1515151,3876.51515113,692.363636294,4247.93939351,515.1515151,4432.36363592,181.333333315,4169.1212117,3391.75757542,4315.42424199,3049.69696939,4736.81818134,3251.63636331,4161.39393898,490.424242375,4365.39393896,4154.18181777,4192.8181814,24.7272727248,4797.60606013,3268.12121179,4434.9393935,78.3030302952,42.0,42.0,?
2017-08-07 12:06:36.328689,4520.454545,3729.69696932,4249.99999958,4154.18181777,3857.45454507,515.1515151,3880.63636325,692.363636294,4253.60606018,515.1515151,4430.81818138,181.333333315,4169.63636322,3391.75757542,4305.63636321,3049.69696939,4733.21212074,3251.63636331,4157.27272686,490.424242375,4363.3333329,4154.18181777,4191.78787837,24.7272727248,4793.99999952,3268.12121179,4430.30302986,78.3030302952,42.0,42.0,?
2017-08-07 12:06:36.336128,4515.30302985,3729.69696932,4248.96969654,4154.18181777,3856.42424204,515.1515151,3878.06060567,692.363636294,4258.24242382,515.1515151,4441.12121168,181.333333315,4171.69696928,3391.75757542,4298.42424199,3049.69696939,4733.72727225,3251.63636331,4153.66666625,490.424242375,4362.30302987,4154.18181777,4188.18181776,24.7272727248,4789.36363588,3268.12121179,4428.75757531,78.3030302952,42.0,42.0,?
2017-08-07 12:06:36.344783,4511.69696925,3729.69696932,4248.45454503,4154.18181777,3852.81818143,515.1515151,3877.03030264,692.363636294,4258.24242382,515.1515151,4446.78787834,181.333333315,4169.1212117,3391.75757542,4302.0303026,3049.69696939,4737.84848437,3251.63636331,4156.75757534,490.424242375,4366.9393935,4154.18181777,4195.39393897,24.7272727248,4789.8787874,3268.12121179,4428.75757531,78.3030302952,42.0,42.0,?
2017-08-07 12:06:36.351927,4514.27272682,3729.69696932,4249.99999958,4154.18181777,3853.84848446,515.1515151,3878.57575719,692.363636294,4252.57575715,515.1515151,4444.21212077,181.333333315,4173.24242383,3391.75757542,4315.42424199,3049.69696939,4741.9696965,3251.63636331,4167.57575716,490.424242375,4372.09090865,4154.18181777,4207.75757534,24.7272727248,4799.15151467,3268.12121179,4431.33333289,78.3030302952,42.0,42.0,?
2017-08-07 12:06:36.359767,4517.36363591,3725.5757572,4251.03030261,4154.18181777,3857.96969658,515.1515151,3870.84848446,692.363636294,4253.09090867,515.1515151,4440.60606016,181.333333315,4173.75757534,3391.75757542,4319.0303026,3049.69696939,4741.45454498,3251.63636331,4169.1212117,490.424242375,4372.60606017,4154.18181777,4204.15151473,24.7272727248,4802.75757528,3268.12121179,4433.39393895,78.3030302952,42.0,42.0,?
2017-08-07 12:06:36.370272,4518.39393894,3725.5757572,4249.48484806,4162.42424201,3856.93939355,515.1515151,3867.24242386,692.363636294,4254.1212117,515.1515151,4437.51515107,181.333333315,4175.8181814,3391.75757542,4314.90909048,3049.69696939,4736.30302983,3251.63636331,4160.87878746,490.424242375,4368.99999956,4154.18181777,4200.54545413,24.7272727248,4796.06060558,3268.12121179,4431.33333289,78.3030302952,42.0,42.0,?
2017-08-07 12:06:36.376546,4520.96969652,3725.5757572,4253.09090867,4162.42424201,3860.54545416,515.1515151,3878.06060567,692.363636294,4251.54545412,515.1515151,4438.5454541,181.333333315,4185.60606019,3391.75757542,4317.48484805,3049.69696939,4732.18181771,3251.63636331,4164.48484807,490.424242375,4366.9393935,4154.18181777,4203.63636322,24.7272727248,4789.8787874,3268.12121179,4430.81818138,65.9393939328,42.0,42.0,?
2017-08-07 12:06:36.383089,4522.51515106,3725.5757572,4254.1212117,4162.42424201,3868.27272689,511.030302979,3884.75757537,692.363636294,4254.1212117,515.1515151,4442.66666622,181.333333315,4183.54545413,3391.75757542,4319.0303026,3049.69696939,4730.12121165,3251.63636331,4172.72727231,490.424242375,4364.36363593,4154.18181777,4199.5151511,24.7272727248,4786.27272679,3268.12121179,4433.90909047,65.9393939328,42.0,42.0,?
2017-08-07 12:06:36.390460,4519.42424197,3725.5757572,4249.48484806,4162.42424201,3864.15151477,511.030302979,3879.0909087,692.363636294,4263.39393897,515.1515151,4442.66666622,181.333333315,4172.72727231,3391.75757542,4313.87878745,3049.69696939,4725.99999953,3251.63636331,4169.1212117,490.424242375,4364.36363593,4154.18181777,4196.424242,24.7272727248,4786.27272679,3268.12121179,4436.48484804,65.9393939328,42.0,42.0,?
2017-08-07 12:06:36.399400,4520.454545,3725.5757572,4249.48484806,4162.42424201,3859.51515113,511.030302979,3878.06060567,692.363636294,4261.84848442,511.030302979,4442.66666622,181.333333315,4171.18181776,3391.75757542,4312.84848442,3049.69696939,4724.9696965,3251.63636331,4169.1212117,490.424242375,4371.06060562,4154.18181777,4203.1212117,24.7272727248,4795.03030255,3268.12121179,4435.45454501,65.9393939328,42.0,42.0,?
2017-08-07 12:06:36.406649,4521.99999955,3725.5757572,4254.1212117,4162.42424201,3862.60606022,511.030302979,3882.69696931,692.363636294,4254.1212117,511.030302979,4440.09090865,193.696969678,4171.69696928,3391.75757542,4315.93939351,3049.69696939,4725.99999953,3251.63636331,4174.78787837,490.424242375,4374.15151471,4154.18181777,4206.72727231,24.7272727248,4801.72727225,3268.12121179,4434.9393935,65.9393939328,42.0,42.0,?
2017-08-07 12:06:36.413970,4518.39393894,3725.5757572,4253.60606018,4162.42424201,3864.66666628,511.030302979,3882.69696931,692.363636294,4256.18181776,511.030302979,4434.9393935,193.696969678,4175.30302989,3383.51515118,4317.99999957,3049.69696939,4722.90909044,3251.63636331,4172.21212079,490.424242375,4368.99999956,4154.18181777,4209.30302988,24.7272727248,4798.63636316,3268.12121179,4434.42424198,65.9393939328,42.0,42.0,?
2017-08-07 12:06:36.422063,4519.42424197,3725.5757572,4251.54545412,4162.42424201,3865.1818178,511.030302979,3882.18181779,692.363636294,4258.75757533,511.030302979,4437.51515107,193.696969678,4187.15151473,3383.51515118,4323.66666623,3057.93939363,4722.39393892,3251.63636331,4170.15151473,490.424242375,4367.96969653,4154.18181777,4215.48484806,24.7272727248,4797.09090861,3268.12121179,4431.33333289,65.9393939328,42.0,42.0,?
2017-08-07 12:06:36.429900,4522.51515106,3725.5757572,4253.09090867,4162.42424201,3864.15151477,511.030302979,3882.18181779,692.363636294,4258.24242382,511.030302979,4445.2424238,193.696969678,4192.8181814,3383.51515118,4328.81818139,3057.93939363,4724.9696965,3284.60606028,4173.24242383,490.424242375,4372.60606017,4154.18181777,4213.93939352,24.7272727248,4801.72727225,3268.12121179,4430.81818138,65.9393939328,42.0,42.0,?
2017-08-07 12:06:36.440993,4520.454545,3725.5757572,4252.57575715,4162.42424201,3864.15151477,511.030302979,3881.15151476,692.363636294,4265.45454503,511.030302979,4445.75757531,193.696969678,4187.66666625,3383.51515118,4325.72727229,3057.93939363,4724.9696965,3284.60606028,4171.18181776,486.303030254,4373.12121168,4154.18181777,4206.72727231,24.7272727248,4803.27272679,3268.12121179,4430.81818138,65.9393939328,42.0,42.0,?
2017-08-07 12:06:36.449974,4519.93939349,3725.5757572,4250.51515109,4162.42424201,3865.1818178,511.030302979,3879.60606022,692.363636294,4265.96969654,511.030302979,4438.5454541,193.696969678,4185.09090867,3383.51515118,4321.09090866,3057.93939363,4719.81818135,3284.60606028,4172.21212079,486.303030254,4375.69696926,4154.18181777,4206.21212079,24.7272727248,4801.21212073,3268.12121179,4431.84848441,65.9393939328,42.0,42.0,?
2017-08-07 12:06:36.455892,4524.06060561,3725.5757572,4252.57575715,4162.42424201,3862.60606022,511.030302979,3878.06060567,692.363636294,4252.06060564,511.030302979,4437.51515107,193.696969678,4188.18181776,3383.51515118,4321.60606017,3057.93939363,4715.69696923,3284.60606028,4173.75757534,486.303030254,4380.84848441,4154.18181777,4206.72727231,24.7272727248,4803.27272679,3268.12121179,4436.48484804,65.9393939328,42.0,42.0,?
2017-08-07 12:06:36.463986,4522.51515106,3725.5757572,4254.1212117,4162.42424201,3855.39393901,511.030302979,3878.06060567,692.363636294,4248.96969654,511.030302979,4439.06060562,193.696969678,4184.57575716,3383.51515118,4321.60606017,3057.93939363,4712.60606013,3284.60606028,4162.93939352,486.303030254,4377.75757532,4154.18181777,4202.60606019,24.7272727248,4803.78787831,3268.12121179,4436.99999956,65.9393939328,42.0,42.0,?
2017-08-07 12:06:36.470185,4521.48484803,3725.5757572,4253.09090867,4162.42424201,3855.39393901,511.030302979,3878.06060567,692.363636294,4262.36363594,511.030302979,4438.03030259,193.696969678,4176.33333292,3383.51515118,4316.96969654,3057.93939363,4707.45454498,3284.60606028,4158.30302989,490.424242375,4375.69696926,4154.18181777,4200.54545413,24.7272727248,4800.1818177,3268.12121179,4432.87878744,65.9393939328,42.0,42.0,?
2017-08-07 12:06:36.479254,4524.57575712,3725.5757572,4253.09090867,4162.42424201,3860.54545416,511.030302979,3878.06060567,692.363636294,4261.84848442,511.030302979,4439.57575713,193.696969678,4174.78787837,3383.51515118,4309.75757533,3057.93939363,4704.36363589,3284.60606028,4166.54545413,490.424242375,4377.75757532,4162.42424201,4203.1212117,24.7272727248,4798.63636316,3268.12121179,4436.99999956,65.9393939328,42.0,42.0,?
2017-08-07 12:06:36.484801,4523.54545409,3725.5757572,4254.63636321,4162.42424201,3860.03030264,511.030302979,3879.0909087,692.363636294,4256.69696927,511.030302979,4442.66666622,193.696969678,4173.75757534,3383.51515118,4305.63636321,3057.93939363,4704.87878741,3284.60606028,4166.54545413,490.424242375,4376.72727229,4162.42424201,4201.06060564,24.7272727248,4798.63636316,3268.12121179,4443.69696925,65.9393939328,42.0,42.0,?
2017-08-07 12:06:36.492051,4521.48484803,3725.5757572,4253.60606018,4162.42424201,3858.4848481,511.030302979,3878.57575719,692.363636294,4263.90909048,511.030302979,4441.63636319,193.696969678,4172.72727231,3383.51515118,4306.66666624,3057.93939363,4702.81818135,3284.60606028,4155.2121208,490.424242375,4374.15151471,4162.42424201,4193.84848443,24.7272727248,4796.5757571,3268.12121179,4440.60606016,65.9393939328,42.0,42.0,?
2017-08-07 12:06:36.501911,4522.51515106,3725.5757572,4252.57575715,4162.42424201,3861.57575719,511.030302979,3874.45454507,692.363636294,4262.36363594,511.030302979,4440.09090865,193.696969678,4177.36363595,3383.51515118,4312.84848442,3057.93939363,4701.2727268,3284.60606028,4151.60606019,490.424242375,4373.6363632,4162.42424201,4193.33333291,24.7272727248,4791.93939346,3268.12121179,4436.99999956,65.9393939328,42.0,42.0,?
2017-08-07 12:06:36.512104,4526.12121167,3725.5757572,4257.7272723,4162.42424201,3865.69696931,511.030302979,3878.57575719,692.363636294,4253.60606018,511.030302979,4445.75757531,193.696969678,4180.96969655,3383.51515118,4320.06060563,3057.93939363,4705.90909044,3284.60606028,4159.84848443,490.424242375,4374.66666623,4162.42424201,4202.09090867,24.7272727248,4792.45454498,3268.12121179,4436.48484804,65.9393939328,42.0,42.0,?
