Timestamp,F3 Value,F3 Quality,FC5 Value,FC5 Quality,F7 Value,F7 Quality,T7 Value,T7 Quality,P7 Value,P7 Quality,O1 Value,O1 Quality,O2 Value,O2 Quality,P8 Value,P8 Quality,T8 Value,T8 Quality,F8 Value,F8 Quality,AF4 Value,AF4 Quality,FC6 Value,FC6 Quality,F4 Value,F4 Quality,AF3 Value,AF3 Quality,X Value,Y Value,Z Value
2017-08-07 12:05:19.966507,4511.69696925,0,4059.39393899,4170.66666625,3846.12121174,0,3847.66666628,0,4231.96969655,0,4387.03030259,0,4154.18181777,0,4327.27272684,0,4907.33333284,0,4150.57575716,0,4374.15151471,0,4229.39393897,0,4775.96969649,0,4373.6363632,0,42.0,42.0,?
2017-08-07 12:05:19.968906,4570.42424197,0,4636.87878742,4170.66666625,3856.93939355,0,3925.45454506,0,4298.42424199,0,4472.03030258,0,4206.72727231,0,4361.27272684,0,4288.12121169,0,4089.27272686,0,4422.06060562,0,4282.96969654,0,4835.21212073,0,4448.33333289,0,42.0,42.0,?
2017-08-07 12:05:19.974698,4572.99999954,0,4637.90909045,4170.66666625,3858.4848481,0,3925.96969658,0,4281.424242,0,4459.66666622,0,4190.75757534,0,4346.84848441,0,4289.66666624,0,4092.36363595,0,4423.60606016,0,4285.54545412,0,4834.69696921,0,4447.30302986,0,42.0,42.0,?
2017-08-07 12:05:19.980092,4562.69696924,0,4627.09090863,4170.66666625,3847.15151477,0,3925.45454506,0,4263.90909048,0,4445.2424238,0,4173.75757534,0,4337.57575714,0,4308.21212078,0,4085.66666626,0,4408.15151471,0,4284.51515109,0,4822.33333285,0,4436.99999956,0,42.0,42.0,?
2017-08-07 12:05:19.983005,4553.93939348,0,4622.45454499,4170.66666625,3843.54545416,0,3925.96969658,0,4265.45454503,0,4440.60606016,0,4169.63636322,0,4336.0303026,0,4293.78787836,0,4076.9090905,0,4397.84848441,0,4273.69696927,0,4816.66666619,0,4433.90909047,0,42.0,42.0,?
2017-08-07 12:05:19.986226,4563.21212076,0,4632.24242378,4170.66666625,3850.75757537,0,3928.54545415,0,4270.09090866,0,4443.69696925,0,4173.75757534,0,4330.87878745,0,4275.24242381,0,4085.15151474,0,4407.6363632,0,4276.78787836,0,4823.36363588,0,4445.2424238,0,42.0,42.0,?
2017-08-07 12:05:19.990117,4568.87878742,0,4633.27272681,4170.66666625,3851.27272689,0,3928.54545415,0,4266.99999957,0,4445.75757531,0,4181.99999958,0,4333.96969654,0,4300.48484805,0,4095.45454505,0,4416.39393895,0,4283.48484806,0,4828.51515103,0,4449.36363592,0,42.0,42.0,?
2017-08-07 12:05:19.993004,4555.48484803,0,4621.93939348,4170.66666625,3840.45454507,0,3928.03030264,0,4269.57575715,0,4444.21212077,0,4184.57575716,0,4334.99999957,0,4341.69696926,0,4101.12121171,0,4398.36363592,0,4281.424242,0,4812.03030255,0,4437.51515107,0,42.0,42.0,?
2017-08-07 12:05:19.996345,4555.48484803,0,4621.93939348,4170.66666625,3840.45454507,0,3928.03030264,0,4269.57575715,0,4443.18181774,0,4177.87878746,0,4334.99999957,0,4341.69696926,0,4101.12121171,0,4398.36363592,0,4281.424242,0,4812.03030255,0,4429.27272683,0,42.0,42.0,?
2017-08-07 12:05:19.999159,4559.09090864,0,4621.42424196,4170.66666625,3836.84848446,0,3923.393939,0,4269.57575715,0,4444.72727228,0,4171.69696928,0,4329.3333329,0,4333.45454502,0,4107.30302989,0,4401.45454501,0,4288.63636321,0,4816.66666619,0,4433.90909047,0,42.0,42.0,?
2017-08-07 12:05:20.002120,4554.454545,0,4612.15151469,4170.66666625,3835.81818143,0,3919.7878784,0,4266.48484806,0,4440.09090865,0,4161.90909049,0,4327.78787836,0,4349.42424199,0,4101.63636323,0,4401.96969653,0,4276.78787836,0,4814.60606012,0,4433.39393895,0,42.0,42.0,?
2017-08-07 12:05:20.005182,4549.81818136,0,4608.03030257,4170.66666625,3831.1818178,0,3924.42424203,0,4262.36363594,0,4435.45454501,0,4156.75757534,0,4327.27272684,0,4381.36363593,0,4096.99999959,0,4391.66666623,0,4264.93939351,0,4806.36363588,0,4425.66666622,0,42.0,42.0,?
2017-08-07 12:05:20.008248,4558.57575712,0,4615.7575753,4170.66666625,3830.66666628,0,3930.0909087,0,4262.87878745,0,4439.57575713,0,4171.69696928,0,4337.06060563,0,4387.54545411,0,4105.75757535,0,4397.84848441,0,4276.78787836,0,4814.60606012,0,4433.90909047,0,42.0,42.0,?
2017-08-07 12:05:20.010901,4568.87878742,0,4625.03030257,4170.66666625,3841.99999962,0,3930.0909087,0,4262.87878745,0,4438.5454541,0,4179.42424201,0,4343.75757532,0,4363.84848441,0,4113.99999959,0,4416.90909047,0,4291.21212078,0,4832.12121164,0,4453.99999955,0,42.0,42.0,?
2017-08-07 12:05:20.014301,4565.27272682,0,4622.45454499,4170.66666625,3843.54545416,0,3929.06060567,0,4254.1212117,0,4427.21212077,0,4166.54545413,0,4335.51515108,0,4354.57575714,0,4113.48484807,0,4413.81818138,0,4285.54545412,0,4829.54545406,0,4451.42424198,0,42.0,42.0,?
2017-08-07 12:05:20.018984,4553.42424197,0,4611.63636318,4170.66666625,3830.15151477,0,3928.03030264,0,4253.09090867,0,4427.72727228,0,4167.06060564,0,4330.36363593,0,4367.45454502,0,4111.42424201,0,4398.36363592,0,4273.18181775,0,4816.66666619,0,4433.39393895,0,42.0,42.0,?
2017-08-07 12:05:20.024193,4549.30302985,0,4609.0606056,4170.66666625,3823.96969659,0,3926.99999961,0,4264.424242,0,4435.45454501,0,4177.36363595,0,4336.54545411,0,4374.66666623,0,4106.78787838,0,4395.78787835,0,4269.57575715,0,4813.57575709,0,4428.75757531,0,42.0,42.0,?
2017-08-07 12:05:20.031566,4552.39393894,0,4612.66666621,4170.66666625,3830.15151477,0,3929.57575718,0,4262.36363594,0,4432.36363592,0,4175.8181814,0,4340.66666623,0,4379.81818138,0,4098.54545414,0,4398.87878744,0,4263.90909048,0,4816.15151467,0,4433.39393895,0,42.0,42.0,?
2017-08-07 12:05:20.041991,4552.39393894,0,4610.60606014,4170.66666625,3830.66666628,0,3930.60606021,0,4251.54545412,0,4429.27272683,0,4171.18181776,0,4334.99999957,0,4388.06060562,0,4094.93939353,0,4396.30302986,0,4262.36363594,0,4817.1818177,0,4434.42424198,0,42.0,42.0,?
2017-08-07 12:05:20.047507,4549.81818136,0,4605.45454499,4170.66666625,3822.93939356,0,3928.03030264,0,4253.09090867,0,4440.09090865,0,4171.69696928,0,4324.18181775,0,4386.51515108,0,4092.87878747,0,4391.66666623,0,4262.87878745,0,4814.09090861,0,4430.81818138,0,42.0,42.0,?
2017-08-07 12:05:20.052975,4545.18181773,0,4605.96969651,4170.66666625,3817.78787841,0,3924.93939355,0,4256.69696927,0,4442.66666622,0,4171.69696928,0,4321.09090866,0,4383.42424199,0,4088.24242383,0,4389.60606017,0,4255.66666624,0,4810.484848,0,4422.57575713,0,42.0,42.0,?
2017-08-07 12:05:20.059991,4543.12121167,0,4606.99999954,4170.66666625,3815.72727235,0,3925.45454506,0,4252.57575715,0,4435.96969653,0,4171.69696928,0,4329.3333329,0,4385.99999956,0,4092.87878747,0,4390.12121168,0,4260.81818139,0,4808.42424194,0,4420.51515107,0,42.0,42.0,?
2017-08-07 12:05:20.075055,4548.27272682,0,4605.45454499,4170.66666625,3814.69696932,0,3927.51515112,0,4252.06060564,0,4438.03030259,0,4173.24242383,0,4339.12121169,0,4388.06060562,0,4099.06060565,0,4393.72727229,0,4275.24242381,0,4813.06060558,0,4428.75757531,0,42.0,42.0,?
2017-08-07 12:05:20.076618,4551.36363591,0,4608.54545408,4170.66666625,3820.36363598,0,3928.03030264,0,4253.60606018,0,4434.42424198,0,4167.06060564,0,4338.60606017,0,4401.96969653,0,4094.93939353,0,4396.81818138,0,4267.51515109,0,4818.72727225,0,4433.90909047,0,42.0,42.0,?
2017-08-07 12:05:20.083417,4550.84848439,0,4613.18181772,4170.66666625,3826.03030265,0,3929.06060567,0,4249.48484806,0,4416.90909047,0,4156.75757534,0,4324.18181775,0,4427.21212077,0,4099.06060565,0,4393.21212077,0,4254.63636321,0,4812.54545406,0,4431.33333289,0,42.0,42.0,?
2017-08-07 12:05:20.092040,4552.39393894,0,4615.24242378,4170.66666625,3823.45454507,0,3929.57575718,0,4248.45454503,0,4411.2424238,0,4147.99999959,0,4315.42424199,0,4433.39393895,0,4108.33333292,0,4389.60606017,0,4263.39393897,0,4807.39393891,0,4430.30302986,0,42.0,42.0,?
2017-08-07 12:05:20.102718,4552.39393894,0,4617.30302984,4170.66666625,3822.42424204,0,3926.99999961,0,4252.57575715,0,4418.96969653,0,4146.96969656,0,4322.6363632,0,4431.84848441,0,4102.15151474,0,4390.12121168,0,4268.54545412,0,4812.54545406,0,4431.33333289,0,42.0,42.0,?
2017-08-07 12:05:20.109447,4547.7575753,0,4615.7575753,4170.66666625,3824.4848481,0,3926.48484809,0,4255.15151473,0,4424.12121168,0,4147.48484807,0,4328.81818139,0,4443.69696925,0,4094.93939353,0,4385.99999956,0,4259.27272685,0,4809.96969649,0,4431.84848441,0,42.0,42.0,?
2017-08-07 12:05:20.115641,4544.66666621,0,4610.09090863,4170.66666625,3821.39393901,0,3928.03030264,0,4251.54545412,0,4424.12121168,0,4147.48484807,0,4324.69696926,0,4442.66666622,0,4094.93939353,0,4378.27272683,0,4254.1212117,0,4800.1818177,0,4424.63636319,0,42.0,42.0,?
2017-08-07 12:05:20.124306,4547.24242379,0,4611.63636318,4170.66666625,3818.81818144,0,3926.48484809,0,4248.45454503,0,4423.09090865,0,4151.60606019,0,4327.27272684,0,4434.9393935,0,4092.87878747,0,4378.78787835,0,4252.57575715,0,4801.21212073,0,4417.42424198,0,42.0,42.0,?
2017-08-07 12:05:20.140638,4550.33333288,0,4617.30302984,4170.66666625,3820.8787875,0,3926.48484809,0,4249.48484806,0,4424.63636319,0,4155.2121208,0,4330.36363593,0,4439.06060562,0,4093.9090905,0,4384.45454502,0,4251.54545412,0,4805.84848437,0,4425.66666622,0,42.0,42.0,?
2017-08-07 12:05:20.143908,4548.78787833,0,4614.72727227,4170.66666625,3820.8787875,0,3929.57575718,0,4254.1212117,0,4428.2424238,0,4147.48484807,0,4318.51515108,0,4442.15151471,0,4098.54545414,0,4384.96969653,0,4252.57575715,0,4807.39393891,0,4435.45454501,0,42.0,42.0,?
2017-08-07 12:05:20.149406,4546.21212076,0,4611.12121166,4170.66666625,3814.69696932,0,3925.96969658,0,4252.06060564,0,4424.63636319,0,4134.09090868,0,4308.7272723,0,4439.06060562,0,4093.9090905,0,4388.57575714,0,4253.09090867,0,4812.54545406,0,4432.36363592,0,42.0,42.0,?
2017-08-07 12:05:20.155240,4548.27272682,0,4616.27272681,4170.66666625,3811.60606022,0,3921.33333294,0,4248.96969654,0,4418.45454501,0,4142.84848443,0,4320.57575714,0,4446.78787834,0,4086.69696929,0,4396.81818138,0,4258.75757533,0,4821.30302982,0,4430.81818138,0,42.0,42.0,?
2017-08-07 12:05:20.162927,4549.30302985,0,4621.93939348,4170.66666625,3818.30302992,0,3924.93939355,0,4252.57575715,0,4417.42424198,0,4158.30302989,0,4332.42424199,0,4461.21212077,0,4091.84848444,0,4398.87878744,0,4270.60606018,0,4819.24242376,0,4435.96969653,0,42.0,42.0,?
2017-08-07 12:05:20.169983,4545.69696924,0,4622.45454499,4170.66666625,3823.96969659,0,3929.06060567,0,4248.96969654,0,4414.84848441,0,4150.57575716,0,4326.24242381,0,4463.78787834,0,4103.69696929,0,4392.69696926,0,4274.7272723,0,4807.90909043,0,4434.9393935,0,42.0,42.0,?
2017-08-07 12:05:20.178748,4546.72727227,0,4623.48484802,4170.66666625,3820.36363598,0,3925.45454506,0,4240.21212079,0,4412.78787835,0,4138.2121208,0,4321.60606017,0,4465.33333289,0,4111.42424201,0,4394.75757532,0,4274.21212078,0,4810.484848,0,4434.42424198,0,42.0,42.0,?
2017-08-07 12:05:20.185391,4550.84848439,0,4625.54545408,4170.66666625,3818.81818144,0,3925.45454506,0,4245.36363594,0,4413.30302986,0,4141.30302989,0,4323.66666623,0,4481.30302985,0,4114.5151511,0,4401.96969653,0,4275.24242381,0,4821.81818134,0,4435.96969653,0,42.0,42.0,?
2017-08-07 12:05:20.193278,4548.78787833,3721.45454508,4623.99999954,4170.66666625,3820.8787875,0,3931.12121173,0,4255.15151473,0,4415.36363592,0,4147.48484807,0,4321.09090866,0,4493.66666622,0,4111.93939353,0,4396.30302986,0,4271.12121169,0,4815.12121164,0,4430.30302986,0,42.0,42.0,?
2017-08-07 12:05:20.203017,4544.66666621,3721.45454508,4618.84848439,4092.36363595,3818.30302992,0,3924.93939355,0,4252.06060564,0,4420.51515107,0,4147.99999959,0,4321.09090866,0,4487.99999955,0,4112.96969656,0,4390.6363632,0,4265.96969654,0,4807.39393891,0,4426.18181774,0,42.0,42.0,?
2017-08-07 12:05:20.209441,4547.24242379,3721.45454508,4620.39393893,4092.36363595,3819.33333295,0,3914.12121173,0,4245.87878745,0,4421.03030259,0,4144.90909049,0,4324.18181775,0,4483.87878743,0,4118.63636322,0,4394.75757532,0,4269.57575715,0,4814.09090861,0,4431.33333289,57.6969696912,42.0,42.0,?
2017-08-07 12:05:20.221390,4549.30302985,3721.45454508,4620.90909045,4092.36363595,3820.8787875,461.57575753,3913.60606021,0,4249.48484806,0,4415.87878744,0,4141.30302989,0,4315.42424199,0,4466.87878743,0,4116.06060565,0,4392.18181774,0,4262.36363594,0,4812.03030255,0,4432.87878744,57.6969696912,42.0,42.0,?
2017-08-07 12:05:20.224728,4544.66666621,3721.45454508,4612.66666621,4092.36363595,3810.06060568,461.57575753,3915.66666628,675.878787811,4252.06060564,0,4415.87878744,0,4143.36363595,0,4308.7272723,0,4421.5454541,0,4100.6060602,0,4380.3333329,0,4247.93939351,0,4799.66666619,0,4425.66666622,57.6969696912,42.0,42.0,?
2017-08-07 12:05:20.232889,4542.09090864,3721.45454508,4610.09090863,4092.36363595,3801.30302992,461.57575753,3912.06060567,675.878787811,4254.63636321,473.939393892,4421.5454541,0,4145.93939352,0,4318.51515108,0,4395.27272683,0,4094.93939353,0,4378.27272683,0,4257.21212079,0,4799.66666619,0,4419.48484804,57.6969696912,42.0,42.0,?
2017-08-07 12:05:20.242851,4546.21212076,3721.45454508,4613.69696924,4092.36363595,3802.33333295,461.57575753,3908.96969658,675.878787811,4260.81818139,473.939393892,4424.12121168,148.363636349,4140.78787837,0,4324.69696926,0,4404.54545411,0,4105.75757535,0,4391.66666623,0,4270.09090866,0,4812.03030255,0,4422.06060562,57.6969696912,42.0,42.0,?
2017-08-07 12:05:20.249046,4547.7575753,3721.45454508,4616.27272681,4092.36363595,3805.42424204,461.57575753,3911.03030264,675.878787811,4260.30302988,473.939393892,4418.45454501,148.363636349,4142.33333292,3383.51515118,4322.12121169,0,4404.54545411,0,4111.93939353,0,4399.39393895,0,4268.0303026,0,4816.15151467,0,4430.30302986,57.6969696912,42.0,42.0,?
2017-08-07 12:05:20.255304,4546.21212076,3721.45454508,4620.39393893,4092.36363595,3811.09090871,461.57575753,3912.06060567,675.878787811,4251.03030261,473.939393892,4408.66666623,148.363636349,4144.39393898,3383.51515118,4317.99999957,3008.48484818,4385.99999956,0,4113.48484807,0,4389.60606017,0,4267.51515109,0,4807.90909043,0,4436.48484804,57.6969696912,42.0,42.0,?
2017-08-07 12:05:20.264647,4548.78787833,3721.45454508,4623.99999954,4092.36363595,3817.78787841,461.57575753,3911.54545415,675.878787811,4247.424242,473.939393892,4406.60606017,148.363636349,4141.8181814,3383.51515118,4313.36363593,3008.48484818,4377.75757532,3338.18181785,4119.15151474,0,4383.42424199,0,4269.06060563,0,4804.30302982,0,4438.5454541,57.6969696912,42.0,42.0,?
2017-08-07 12:05:20.272074,4550.33333288,3721.45454508,4622.45454499,4092.36363595,3815.21212083,461.57575753,3913.60606021,675.878787811,4250.51515109,473.939393892,4412.27272683,148.363636349,4151.09090868,3383.51515118,4316.45454502,3008.48484818,4380.84848441,3338.18181785,4120.69696928,416.242424201,4393.72727229,0,4263.90909048,0,4811.51515103,0,4436.99999956,57.6969696912,42.0,42.0,?
2017-08-07 12:05:20.282683,4546.72727227,3721.45454508,4622.96969651,4092.36363595,3807.99999962,461.57575753,3912.57575718,675.878787811,4251.03030261,473.939393892,4417.9393935,148.363636349,4162.93939352,3383.51515118,4324.18181775,3008.48484818,4387.54545411,3338.18181785,4118.63636322,416.242424201,4402.48484804,4170.66666625,4265.96969654,0,4816.15151467,0,4434.42424198,57.6969696912,42.0,42.0,?
2017-08-07 12:05:20.295922,4542.09090864,3721.45454508,4614.72727227,4092.36363595,3801.81818144,461.57575753,3902.7878784,675.878787811,4250.51515109,473.939393892,4421.5454541,148.363636349,4156.24242383,3383.51515118,4323.66666623,3008.48484818,4401.45454501,3338.18181785,4122.75757535,416.242424201,4392.18181774,4170.66666625,4271.63636321,28.8484848456,4808.42424194,0,4429.78787834,57.6969696912,42.0,42.0,?
2017-08-07 12:05:20.299115,4536.42424197,3721.45454508,4607.51515105,4092.36363595,3800.27272689,461.57575753,3895.06060567,675.878787811,4254.1212117,473.939393892,4420.51515107,148.363636349,4143.87878746,3383.51515118,4316.96969654,3008.48484818,4405.57575714,3338.18181785,4123.78787838,416.242424201,4380.84848441,4170.66666625,4263.39393897,28.8484848456,4800.69696922,3218.66666634,4422.06060562,57.6969696912,42.0,42.0,?
2017-08-07 12:05:20.301943,4533.33333288,3721.45454508,4614.72727227,4092.36363595,3799.24242386,461.57575753,3896.0909087,675.878787811,4249.48484806,473.939393892,4412.27272683,148.363636349,4143.87878746,3383.51515118,4313.87878745,3008.48484818,4395.27272683,3338.18181785,4113.99999959,416.242424201,4383.9393935,4170.66666625,4247.93939351,28.8484848456,4804.81818134,3218.66666634,4419.99999956,57.6969696912,42.0,42.0,?
2017-08-07 12:05:20.312162,4534.87878743,3721.45454508,4616.27272681,4092.36363595,3792.03030265,461.57575753,3897.12121173,675.878787811,4244.33333291,473.939393892,4411.75757532,148.363636349,4149.03030262,3383.51515118,4314.90909048,3008.48484818,4400.42424198,3338.18181785,4112.96969656,416.242424201,4386.51515108,4170.66666625,4246.90909048,28.8484848456,4806.8787874,3218.66666634,4421.03030259,57.6969696912,42.0,42.0,?
2017-08-07 12:05:20.318175,4535.90909046,3721.45454508,4610.60606014,4092.36363595,3787.39393902,461.57575753,3897.63636325,675.878787811,4249.99999958,473.939393892,4420.51515107,148.363636349,4146.96969656,3383.51515118,4319.0303026,3008.48484818,4418.45454501,3338.18181785,4121.2121208,416.242424201,4380.3333329,4170.66666625,4255.15151473,20.606060604,4801.21212073,3218.66666634,4417.42424198,57.6969696912,42.0,42.0,?
2017-08-07 12:05:20.329089,4537.454545,3721.45454508,4618.33333287,4092.36363595,3793.06060568,461.57575753,3899.18181779,675.878787811,4251.03030261,473.939393892,4416.90909047,148.363636349,4141.8181814,3383.51515118,4321.09090866,3008.48484818,4421.5454541,3338.18181785,4119.15151474,416.242424201,4379.81818138,4170.66666625,4255.66666624,20.606060604,4803.27272679,3218.66666634,4419.99999956,57.6969696912,42.0,42.0,?
2017-08-07 12:05:20.334121,4540.54545409,3721.45454508,4626.57575711,4092.36363595,3801.30302992,461.57575753,3898.15151476,675.878787811,4237.1212117,473.939393892,4401.45454501,148.363636349,4140.27272686,3383.51515118,4315.93939351,3008.48484818,4418.96969653,3338.18181785,4112.96969656,416.242424201,4385.99999956,4170.66666625,4252.06060564,20.606060604,4809.45454497,3218.66666634,4432.36363592,57.6969696912,42.0,42.0,?
2017-08-07 12:05:20.342812,4537.96969652,3721.45454508,4620.39393893,4092.36363595,3799.24242386,461.57575753,3895.06060567,675.878787811,4228.87878746,473.939393892,4395.78787835,148.363636349,4140.27272686,3383.51515118,4312.3333329,3008.48484818,4423.09090865,3338.18181785,4115.03030262,416.242424201,4383.42424199,4170.66666625,4245.36363594,20.606060604,4805.84848437,3218.66666634,4430.30302986,57.6969696912,42.0,42.0,?
2017-08-07 12:05:20.349853,4534.87878743,3721.45454508,4615.7575753,4092.36363595,3790.48484811,461.57575753,3892.4848481,675.878787811,4234.03030261,473.939393892,4402.99999956,148.363636349,4140.27272686,3383.51515118,4315.42424199,3008.48484818,4423.09090865,3338.18181785,4113.48484807,416.242424201,4378.78787835,4170.66666625,4236.60606018,20.606060604,4802.75757528,3218.66666634,4414.84848441,57.6969696912,42.0,42.0,?
2017-08-07 12:05:20.357795,4537.96969652,3721.45454508,4619.87878742,4092.36363595,3791.51515114,461.57575753,3892.4848481,675.878787811,4238.15151473,473.939393892,4406.09090865,148.363636349,4143.36363595,3383.51515118,4316.45454502,3008.48484818,4419.99999956,3338.18181785,4104.2121208,416.242424201,4380.3333329,4170.66666625,4232.48484806,20.606060604,4804.30302982,3218.66666634,4414.84848441,57.6969696912,42.0,42.0,?
2017-08-07 12:05:20.366690,4538.48484803,3721.45454508,4618.84848439,4092.36363595,3800.27272689,461.57575753,3892.4848481,675.878787811,4237.63636321,473.939393892,4405.06060562,148.363636349,4141.30302989,3383.51515118,4312.3333329,3008.48484818,4424.12121168,3338.18181785,4100.6060602,416.242424201,4382.39393896,4170.66666625,4232.99999958,20.606060604,4802.75757528,3218.66666634,4428.2424238,57.6969696912,42.0,42.0,?
2017-08-07 12:05:20.379638,4532.30302985,3721.45454508,4616.78787833,4092.36363595,3801.81818144,461.57575753,3892.4848481,675.878787811,4242.27272685,473.939393892,4411.75757532,148.363636349,4137.69696928,3383.51515118,4313.36363593,3008.48484818,4442.15151471,3338.18181785,4105.75757535,416.242424201,4381.87878744,4170.66666625,4234.03030261,20.606060604,4800.1818177,3218.66666634,4432.87878744,57.6969696912,42.0,42.0,?
2017-08-07 12:05:20.385209,4529.72727227,3721.45454508,4618.33333287,4092.36363595,3799.75757538,461.57575753,3894.03030264,675.878787811,4252.06060564,473.939393892,4420.51515107,148.363636349,4144.90909049,3383.51515118,4323.66666623,3008.48484818,4462.2424238,3338.18181785,4109.87878747,416.242424201,4378.78787835,4170.66666625,4242.78787836,20.606060604,4796.06060558,3218.66666634,4426.18181774,57.6969696912,42.0,42.0,?
2017-08-07 12:05:20.396690,4531.78787833,3721.45454508,4621.42424196,4092.36363595,3804.39393901,461.57575753,3896.60606022,675.878787811,4254.63636321,473.939393892,4418.45454501,148.363636349,4154.69696928,3383.51515118,4325.21212078,3008.48484818,4466.87878743,3338.18181785,4105.75757535,416.242424201,4378.27272683,4170.66666625,4248.96969654,20.606060604,4796.06060558,3218.66666634,4426.69696925,57.6969696912,42.0,42.0,?
2017-08-07 12:05:20.400899,4532.30302985,3721.45454508,4623.48484802,4092.36363595,3805.93939356,461.57575753,3894.54545416,675.878787811,4246.90909048,473.939393892,4412.27272683,148.363636349,4155.2121208,3383.51515118,4321.60606017,3008.48484818,4472.03030258,3338.18181785,4100.09090868,416.242424201,4382.39393896,4170.66666625,4244.84848442,20.606060604,4800.69696922,3218.66666634,4435.45454501,57.6969696912,42.0,42.0,?
2017-08-07 12:05:20.405371,4532.81818136,3721.45454508,4622.96969651,4092.36363595,3799.75757538,461.57575753,3894.03030264,675.878787811,4248.45454503,473.939393892,4419.48484804,148.363636349,4153.66666625,3383.51515118,4328.30302987,3008.48484818,4496.75757531,3338.18181785,4108.33333292,416.242424201,4383.42424199,4170.66666625,4249.99999958,20.606060604,4800.1818177,3218.66666634,4434.9393935,57.6969696912,42.0,42.0,?
2017-08-07 12:05:20.413889,4531.27272682,3721.45454508,4622.96969651,4092.36363595,3800.27272689,461.57575753,3898.15151476,675.878787811,4257.21212079,473.939393892,4428.2424238,148.363636349,4152.12121171,3383.51515118,4332.93939351,3008.48484818,4512.72727228,3338.18181785,4110.9090905,416.242424201,4379.30302987,4170.66666625,4245.36363594,20.606060604,4795.54545407,3218.66666634,4432.87878744,57.6969696912,42.0,42.0,?
2017-08-07 12:05:20.420065,4530.7575753,3721.45454508,4629.15151469,4092.36363595,3806.45454507,461.57575753,3898.15151476,675.878787811,4255.15151473,473.939393892,4421.03030259,148.363636349,4152.63636322,3383.51515118,4328.30302987,3008.48484818,4506.54545409,3338.18181785,4096.99999959,416.242424201,4378.27272683,4170.66666625,4220.1212117,20.606060604,4798.12121164,3218.66666634,4443.18181774,57.6969696912,42.0,42.0,?
2017-08-07 12:05:20.428011,4534.36363591,3721.45454508,4636.87878742,4092.36363595,3807.99999962,461.57575753,3896.60606022,675.878787811,4248.45454503,473.939393892,4410.72727229,148.363636349,4154.18181777,3383.51515118,4328.81818139,3008.48484818,4506.03030258,3338.18181785,4098.03030262,416.242424201,4379.81818138,4170.66666625,4218.06060564,20.606060604,4799.15151467,3218.66666634,4449.36363592,57.6969696912,42.0,42.0,?
2017-08-07 12:05:20.435044,4534.87878743,3721.45454508,4637.39393893,4092.36363595,3806.96969659,461.57575753,3896.60606022,675.878787811,4248.45454503,473.939393892,4416.39393895,148.363636349,4155.72727231,3383.51515118,4331.39393896,3008.48484818,4516.33333288,3338.18181785,4106.27272686,416.242424201,4378.78787835,4170.66666625,4240.7272723,20.606060604,4796.5757571,3218.66666634,4446.27272683,57.6969696912,42.0,42.0,?
2017-08-07 12:05:20.443678,4534.87878743,3721.45454508,4635.33333287,4092.36363595,3808.51515113,461.57575753,3895.06060567,675.878787811,4253.60606018,473.939393892,4426.69696925,148.363636349,4162.42424201,3383.51515118,4326.75757532,3008.48484818,4516.33333288,3338.18181785,4098.54545414,416.242424201,4381.36363593,4170.66666625,4242.78787836,20.606060604,4799.15151467,3218.66666634,4453.48484804,57.6969696912,42.0,42.0,?
2017-08-07 12:05:20.450973,4541.06060561,3721.45454508,4640.48484802,4092.36363595,3807.99999962,461.57575753,3892.99999961,675.878787811,4256.18181776,473.939393892,4429.27272683,148.363636349,4168.60606019,3383.51515118,4329.3333329,3008.48484818,4513.24242379,3338.18181785,4101.63636323,416.242424201,4390.6363632,4170.66666625,4234.54545412,20.606060604,4809.96969649,3218.66666634,4466.36363592,57.6969696912,42.0,42.0,?
2017-08-07 12:05:20.460601,4545.69696924,3721.45454508,4643.0606056,4092.36363595,3807.4848481,461.57575753,3894.54545416,675.878787811,4254.63636321,473.939393892,4429.78787834,148.363636349,4163.45454504,3383.51515118,4332.93939351,3008.48484818,4514.78787834,3338.18181785,4115.54545413,416.242424201,4393.21212077,4170.66666625,4241.24242382,20.606060604,4813.57575709,3218.66666634,4468.42424198,57.6969696912,42.0,42.0,?
2017-08-07 12:05:20.467331,4542.60606015,3721.45454508,4639.96969651,4092.36363595,3807.99999962,461.57575753,3896.60606022,675.878787811,4251.03030261,473.939393892,4427.21212077,148.363636349,4155.2121208,3383.51515118,4323.15151472,3008.48484818,4510.1515147,3338.18181785,4106.78787838,416.242424201,4384.96969653,4170.66666625,4237.1212117,20.606060604,4805.33333285,3218.66666634,4466.36363592,57.6969696912,42.0,42.0,?
2017-08-07 12:05:20.475968,4539.51515106,3721.45454508,4639.96969651,4092.36363595,3804.39393901,461.57575753,3894.54545416,675.878787811,4252.57575715,473.939393892,4421.5454541,148.363636349,4156.24242383,3383.51515118,4315.42424199,3008.48484818,4503.96969652,3338.18181785,4095.45454505,416.242424201,4384.45454502,4170.66666625,4223.21212079,20.606060604,4804.81818134,3218.66666634,4468.93939349,57.6969696912,42.0,42.0,?
2017-08-07 12:05:20.483323,4538.48484803,3721.45454508,4643.0606056,4092.36363595,3800.78787841,461.57575753,3891.96969658,675.878787811,4253.60606018,473.939393892,4418.96969653,148.363636349,4157.78787837,3383.51515118,4321.09090866,3008.48484818,4502.93939349,3338.18181785,4103.18181777,416.242424201,4388.57575714,4170.66666625,4227.33333291,20.606060604,4806.8787874,3218.66666634,4467.39393895,57.6969696912,42.0,42.0,?
2017-08-07 12:05:20.490752,4535.90909046,3721.45454508,4643.57575711,4092.36363595,3805.42424204,461.57575753,3891.96969658,675.878787811,4240.7272723,473.939393892,4416.39393895,148.363636349,4154.18181777,3383.51515118,4327.27272684,3008.48484818,4492.12121167,3338.18181785,4108.84848444,416.242424201,4382.39393896,4170.66666625,4230.93939352,20.606060604,4799.15151467,3218.66666634,4464.30302986,57.6969696912,42.0,42.0,?
2017-08-07 12:05:20.498815,4535.90909046,3721.45454508,4644.09090863,4092.36363595,3808.51515113,461.57575753,3894.03030264,675.878787811,4235.06060564,473.939393892,4410.72727229,148.363636349,4154.69696928,3383.51515118,4326.24242381,3008.48484818,4466.36363592,3338.18181785,4112.45454504,416.242424201,4384.45454502,4170.66666625,4223.21212079,20.606060604,4800.69696922,3218.66666634,4466.36363592,57.6969696912,42.0,42.0,?
2017-08-07 12:05:20.506649,4540.03030258,3721.45454508,4649.75757529,4092.36363595,3802.84848447,461.57575753,3895.57575719,675.878787811,4247.424242,473.939393892,4411.75757532,148.363636349,4156.75757534,3383.51515118,4322.12121169,3008.48484818,4450.39393895,3338.18181785,4119.15151474,416.242424201,4397.33333289,4170.66666625,4225.78787837,20.606060604,4814.09090861,3218.66666634,4468.93939349,57.6969696912,42.0,42.0,?
2017-08-07 12:05:20.513931,4542.09090864,3721.45454508,4652.84848438,4092.36363595,3801.30302992,461.57575753,3897.63636325,675.878787811,4254.63636321,473.939393892,4418.96969653,148.363636349,4155.72727231,3383.51515118,4323.66666623,3008.48484818,4451.42424198,3338.18181785,4119.15151474,416.242424201,4397.33333289,4170.66666625,4229.39393897,20.606060604,4814.60606012,3218.66666634,4466.87878743,57.6969696912,42.0,42.0,?
2017-08-07 12:05:20.522393,4537.96969652,3721.45454508,4649.24242378,4092.36363595,3800.27272689,461.57575753,3897.63636325,675.878787811,4246.39393897,473.939393892,4419.99999956,148.363636349,4155.2121208,3383.51515118,4327.78787836,3008.48484818,4422.57575713,3338.18181785,4116.57575716,416.242424201,4387.54545411,4170.66666625,4220.1212117,20.606060604,4804.30302982,3218.66666634,4464.81818137,57.6969696912,42.0,42.0,?
2017-08-07 12:05:20.529801,4535.39393894,3721.45454508,4648.21212075,4092.36363595,3794.60606023,461.57575753,3895.57575719,675.878787811,4244.84848442,473.939393892,4417.42424198,148.363636349,4153.15151474,3383.51515118,4324.18181775,3008.48484818,4347.87878744,3338.18181785,4115.54545413,416.242424201,4383.42424199,4170.66666625,4213.93939352,20.606060604,4799.66666619,3218.66666634,4462.75757531,57.6969696912,42.0,42.0,?
2017-08-07 12:05:20.537057,4533.8484844,3721.45454508,4649.75757529,4092.36363595,3789.96969659,461.57575753,3897.63636325,675.878787811,4252.57575715,473.939393892,4415.87878744,148.363636349,4146.45454504,3383.51515118,4316.45454502,3008.48484818,4292.24242381,3338.18181785,4110.39393898,416.242424201,4376.72727229,4170.66666625,4214.96969655,20.606060604,4793.99999952,3218.66666634,4455.5454541,57.6969696912,42.0,42.0,?
2017-08-07 12:05:20.545390,4529.21212076,3721.45454508,4648.72727226,4092.36363595,3786.36363599,461.57575753,3899.69696931,675.878787811,4251.03030261,473.939393892,4416.39393895,148.363636349,4139.24242383,3383.51515118,4307.69696927,3008.48484818,4291.21212078,3338.18181785,4099.57575717,416.242424201,4369.51515108,4170.66666625,4206.72727231,20.606060604,4787.30302982,3218.66666634,4447.81818137,57.6969696912,42.0,42.0,?
2017-08-07 12:05:20.553008,4526.63636318,3721.45454508,4646.15151469,4092.36363595,3780.69696932,461.57575753,3900.72727234,675.878787811,4240.21212079,473.939393892,4417.9393935,148.363636349,4139.24242383,3383.51515118,4304.60606018,3008.48484818,4294.81818139,3338.18181785,4091.84848444,416.242424201,4370.03030259,4170.66666625,4201.57575716,20.606060604,4787.81818134,3218.66666634,4444.21212077,57.6969696912,42.0,42.0,?
2017-08-07 12:05:20.560430,4529.21212076,3721.45454508,4648.21212075,4092.36363595,3779.15151477,461.57575753,3902.27272688,675.878787811,4234.54545412,473.939393892,4414.84848441,148.363636349,4141.8181814,3383.51515118,4311.81818139,3008.48484818,4278.33333291,3338.18181785,4093.39393898,416.242424201,4371.06060562,4170.66666625,4211.87878746,20.606060604,4793.48484801,3218.66666634,4443.18181774,57.6969696912,42.0,42.0,?
2017-08-07 12:05:20.569282,4529.21212076,3721.45454508,4650.78787832,4092.36363595,3779.66666629,461.57575753,3902.27272688,675.878787811,4236.60606018,473.939393892,4410.21212077,148.363636349,4141.30302989,3383.51515118,4314.39393896,3008.48484818,4281.424242,3338.18181785,4096.48484808,416.242424201,4369.51515108,4170.66666625,4217.54545412,20.606060604,4794.51515104,3218.66666634,4445.2424238,57.6969696912,42.0,42.0,?
2017-08-07 12:05:20.576559,4526.63636318,3721.45454508,4651.81818135,4092.36363595,3778.63636326,461.57575753,3904.84848446,675.878787811,4236.60606018,473.939393892,4409.18181774,148.363636349,4139.24242383,3383.51515118,4306.15151472,3008.48484818,4318.51515108,3338.18181785,4092.87878747,416.242424201,4364.87878744,4170.66666625,4210.33333291,20.606060604,4786.78787831,3218.66666634,4447.81818137,57.6969696912,42.0,42.0,?
2017-08-07 12:05:20.584187,4524.57575712,3721.45454508,4653.3636359,4092.36363595,3781.21212083,461.57575753,3910.51515112,675.878787811,4235.06060564,473.939393892,4409.18181774,148.363636349,4137.18181777,3383.51515118,4306.15151472,3008.48484818,4352.51515108,3338.18181785,4090.30302989,416.242424201,4359.72727229,4170.66666625,4205.18181776,20.606060604,4784.72727225,3218.66666634,4447.30302986,57.6969696912,42.0,42.0,?
2017-08-07 12:05:20.592710,4521.48484803,3721.45454508,4654.39393893,4092.36363595,3783.27272689,461.57575753,3912.57575718,675.878787811,4234.03030261,473.939393892,4410.72727229,148.363636349,4141.30302989,3383.51515118,4315.93939351,3008.48484818,4357.66666623,3338.18181785,4098.03030262,416.242424201,4359.72727229,4170.66666625,4209.30302988,20.606060604,4787.30302982,3218.66666634,4444.21212077,57.6969696912,42.0,42.0,?
2017-08-07 12:05:20.606828,4521.99999955,3721.45454508,4651.81818135,4092.36363595,3781.72727235,461.57575753,3910.51515112,675.878787811,4237.1212117,473.939393892,4413.81818138,148.363636349,4148.5151511,3383.51515118,4319.0303026,3008.48484818,4359.72727229,3338.18181785,4100.6060602,416.242424201,4362.30302987,4170.66666625,4215.48484806,20.606060604,4784.21212073,3218.66666634,4442.15151471,57.6969696912,42.0,42.0,?
2017-08-07 12:05:20.608164,4525.60606015,3721.45454508,4650.27272681,4092.36363595,3786.8787875,461.57575753,3909.99999961,675.878787811,4245.36363594,473.939393892,4413.81818138,148.363636349,4146.45454504,3383.51515118,4312.84848442,3008.48484818,4377.75757532,3338.18181785,4093.9090905,416.242424201,4361.78787835,4170.66666625,4214.96969655,20.606060604,4784.72727225,3218.66666634,4443.18181774,57.6969696912,42.0,42.0,?
2017-08-07 12:05:20.616652,4527.66666621,3721.45454508,4656.45454499,4092.36363595,3789.96969659,461.57575753,3911.54545415,675.878787811,4253.60606018,473.939393892,4413.30302986,148.363636349,4138.72727231,3383.51515118,4310.27272684,3008.48484818,4388.57575714,3338.18181785,4094.42424201,416.242424201,4362.81818138,4170.66666625,4214.96969655,20.606060604,4790.90909043,3218.66666634,4445.2424238,57.6969696912,42.0,42.0,?
2017-08-07 12:05:20.623690,4527.1515147,3721.45454508,4662.63636317,4092.36363595,3784.81818144,461.57575753,3910.51515112,675.878787811,4251.54545412,473.939393892,4417.9393935,148.363636349,4144.90909049,3383.51515118,4317.99999957,3008.48484818,4390.12121168,3338.18181785,4108.33333292,416.242424201,4366.9393935,4170.66666625,4223.21212079,20.606060604,4791.42424195,3218.66666634,4445.75757531,57.6969696912,42.0,42.0,?
2017-08-07 12:05:20.633229,4527.1515147,3721.45454508,4662.12121166,4092.36363595,3782.24242386,461.57575753,3911.03030264,675.878787811,4246.39393897,473.939393892,4422.06060562,148.363636349,4157.27272686,3383.51515118,4323.66666623,3008.48484818,4381.87878744,3338.18181785,4114.5151511,416.242424201,4367.96969653,4170.66666625,4232.99999958,20.606060604,4788.33333285,3218.66666634,4442.66666622,57.6969696912,42.0,42.0,?
2017-08-07 12:05:20.641081,4524.06060561,3721.45454508,4661.09090862,4092.36363595,3783.78787841,461.57575753,3913.0909087,675.878787811,4246.90909048,473.939393892,4421.5454541,148.363636349,4153.15151474,3383.51515118,4318.51515108,3008.48484818,4334.99999957,3338.18181785,4108.33333292,416.242424201,4364.87878744,4170.66666625,4221.15151473,20.606060604,4787.30302982,3218.66666634,4436.48484804,57.6969696912,42.0,42.0,?
2017-08-07 12:05:20.651447,4523.54545409,3721.45454508,4664.18181772,4092.36363595,3785.33333295,461.57575753,3908.96969658,675.878787811,4249.48484806,473.939393892,4418.45454501,148.363636349,4143.87878746,3383.51515118,4317.48484805,3008.48484818,4268.0303026,3338.18181785,4105.75757535,416.242424201,4363.84848441,4170.66666625,4204.15151473,20.606060604,4787.30302982,3218.66666634,4434.42424198,57.6969696912,42.0,42.0,?
2017-08-07 12:05:20.654993,4526.12121167,3721.45454508,4666.75757529,4092.36363595,3784.81818144,461.57575753,3904.84848446,675.878787811,4253.60606018,473.939393892,4417.42424198,148.363636349,4142.84848443,3383.51515118,4320.06060563,3008.48484818,4224.75757534,3338.18181785,4106.27272686,416.242424201,4366.42424199,4170.66666625,4211.36363594,20.606060604,4790.39393891,3218.66666634,4439.57575713,57.6969696912,42.0,42.0,?
2017-08-07 12:05:20.673713,4526.12121167,3721.45454508,4667.78787832,4092.36363595,3785.33333295,461.57575753,3908.96969658,675.878787811,4234.54545412,473.939393892,4412.27272683,148.363636349,4136.66666625,3383.51515118,4309.75757533,3008.48484818,4211.36363594,3338.18181785,4099.06060565,416.242424201,4367.96969653,4170.66666625,4223.21212079,20.606060604,4793.48484801,3218.66666634,4440.09090865,57.6969696912,42.0,42.0,?
2017-08-07 12:05:20.675622,4518.39393894,3721.45454508,4668.30302984,4092.36363595,3783.27272689,461.57575753,3909.48484809,675.878787811,4238.66666624,473.939393892,4413.30302986,148.363636349,4122.75757535,3383.51515118,4296.36363593,3008.48484818,4249.99999958,3338.18181785,4098.54545414,416.242424201,4357.15151472,4170.66666625,4208.27272685,20.606060604,4780.09090861,3218.66666634,4430.81818138,57.6969696912,42.0,42.0,?
2017-08-07 12:05:20.680524,4518.39393894,3721.45454508,4668.30302984,4092.36363595,3783.27272689,461.57575753,3909.48484809,675.878787811,4238.66666624,473.939393892,4413.30302986,148.363636349,4122.75757535,3383.51515118,4296.36363593,3008.48484818,4249.99999958,3338.18181785,4098.54545414,416.242424201,4357.15151472,4170.66666625,4208.27272685,20.606060604,4780.09090861,3218.66666634,4430.81818138,57.6969696912,42.0,42.0,?
2017-08-07 12:05:20.686869,4527.1515147,3721.45454508,4680.15151468,4092.36363595,3795.63636326,461.57575753,3909.99999961,675.878787811,4251.54545412,473.939393892,4422.57575713,148.363636349,4135.12121171,3383.51515118,4302.0303026,3008.48484818,4316.45454502,3338.18181785,4102.66666626,416.242424201,4358.69696926,4170.66666625,4220.63636321,20.606060604,4782.66666619,3218.66666634,4432.87878744,57.6969696912,42.0,42.0,?
2017-08-07 12:05:20.694893,4527.1515147,3721.45454508,4680.15151468,4092.36363595,3795.63636326,461.57575753,3916.18181779,675.878787811,4251.54545412,473.939393892,4415.87878744,148.363636349,4139.24242383,3383.51515118,4305.63636321,3008.48484818,4316.45454502,3338.18181785,4095.45454505,416.242424201,4364.36363593,4170.66666625,4220.63636321,20.606060604,4790.90909043,3218.66666634,4436.99999956,57.6969696912,42.0,42.0,?
2017-08-07 12:05:20.704492,4526.63636318,3721.45454508,4683.24242377,4092.36363595,3801.30302992,461.57575753,3914.63636324,675.878787811,4245.87878745,473.939393892,4411.2424238,148.363636349,4137.69696928,3383.51515118,4310.78787836,3008.48484818,4346.84848441,3338.18181785,4096.48484808,416.242424201,4367.96969653,4170.66666625,4221.66666624,20.606060604,4792.45454498,3218.66666634,4437.51515107,57.6969696912,42.0,42.0,?
2017-08-07 12:05:20.710121,4524.57575712,3721.45454508,4679.63636317,4092.36363595,3795.12121174,461.57575753,3911.03030264,675.878787811,4252.57575715,473.939393892,4420.51515107,148.363636349,4144.39393898,3383.51515118,4315.93939351,3008.48484818,4371.06060562,3338.18181785,4105.24242383,416.242424201,4366.9393935,4170.66666625,4211.87878746,20.606060604,4789.8787874,3218.66666634,4435.45454501,57.6969696912,42.0,42.0,?
2017-08-07 12:05:20.725040,4525.09090864,3721.45454508,4684.2727268,4092.36363595,3795.12121174,461.57575753,3917.72727234,675.878787811,4253.60606018,473.939393892,4423.09090865,148.363636349,4155.2121208,3383.51515118,4319.0303026,3008.48484818,4386.51515108,3338.18181785,4108.84848444,416.242424201,4364.36363593,4170.66666625,4205.69696928,20.606060604,4790.90909043,3218.66666634,4436.99999956,57.6969696912,42.0,42.0,?
2017-08-07 12:05:20.728462,4528.69696924,3721.45454508,4694.06060559,4092.36363595,3802.84848447,465.69696965,3922.36363597,675.878787811,4249.48484806,473.939393892,4422.57575713,148.363636349,4160.36363595,3383.51515118,4323.15151472,3008.48484818,4394.75757532,3338.18181785,4106.78787838,416.242424201,4367.45454502,4170.66666625,4220.1212117,20.606060604,4796.06060558,3218.66666634,4435.96969653,57.6969696912,42.0,42.0,?
2017-08-07 12:05:20.732999,4528.18181773,3721.45454508,4695.09090862,4092.36363595,3801.30302992,465.69696965,3916.18181779,688.242424174,4253.09090867,473.939393892,4427.72727228,148.363636349,4158.8181814,3383.51515118,4322.12121169,3008.48484818,4399.90909047,3338.18181785,4101.12121171,416.242424201,4371.57575714,4170.66666625,4225.78787837,20.606060604,4797.09090861,3218.66666634,4431.84848441,57.6969696912,42.0,42.0,?
2017-08-07 12:05:20.741564,4523.03030258,3721.45454508,4692.51515105,4092.36363595,3793.5757572,465.69696965,3910.51515112,688.242424174,4254.1212117,465.69696965,4426.69696925,148.363636349,4146.96969656,3383.51515118,4313.87878745,3008.48484818,4409.18181774,3338.18181785,4094.42424201,416.242424201,4365.90909047,4170.66666625,4209.8181814,20.606060604,4790.39393891,3218.66666634,4431.33333289,57.6969696912,42.0,42.0,?
2017-08-07 12:05:20.747916,4521.99999955,3721.45454508,4691.99999953,4092.36363595,3790.48484811,465.69696965,3911.54545415,688.242424174,4245.36363594,465.69696965,4416.90909047,156.60606059,4132.54545413,3383.51515118,4310.78787836,3008.48484818,4413.30302986,3338.18181785,4093.39393898,416.242424201,4356.6363632,4170.66666625,4197.96969655,20.606060604,4782.15151467,3218.66666634,4433.39393895,57.6969696912,42.0,42.0,?
2017-08-07 12:05:20.758289,4524.06060561,3721.45454508,4693.03030256,4092.36363595,3791.51515114,465.69696965,3913.60606021,688.242424174,4242.27272685,465.69696965,4415.36363592,156.60606059,4137.18181777,3391.75757542,4315.93939351,3008.48484818,4415.87878744,3338.18181785,4099.06060565,416.242424201,4358.69696926,4170.66666625,4196.424242,20.606060604,4784.72727225,3218.66666634,4432.87878744,57.6969696912,42.0,42.0,?
2017-08-07 12:05:20.763975,4521.99999955,3721.45454508,4694.06060559,4092.36363595,3790.99999962,465.69696965,3908.96969658,688.242424174,4241.75757533,465.69696965,4415.36363592,156.60606059,4140.78787837,3391.75757542,4315.42424199,3012.6060603,4424.63636319,3338.18181785,4104.72727232,416.242424201,4366.9393935,4170.66666625,4202.60606019,20.606060604,4792.45454498,3218.66666634,4432.87878744,57.6969696912,42.0,42.0,?
2017-08-07 12:05:20.776620,4519.42424197,3721.45454508,4696.12121165,4092.36363595,3789.45454508,465.69696965,3903.30302991,688.242424174,4237.63636321,465.69696965,4410.72727229,156.60606059,4129.96969656,3391.75757542,4309.75757533,3012.6060603,4431.33333289,3338.18181785,4108.84848444,416.242424201,4368.99999956,4170.66666625,4215.48484806,20.606060604,4792.96969649,3218.66666634,4431.84848441,57.6969696912,42.0,42.0,?
2017-08-07 12:05:20.779070,4522.51515106,3721.45454508,4698.18181771,4092.36363595,3787.90909053,465.69696965,3909.48484809,688.242424174,4243.30302988,465.69696965,4415.36363592,156.60606059,4130.48484807,3391.75757542,4308.7272723,3012.6060603,4438.03030259,3338.18181785,4109.87878747,424.484848442,4366.9393935,4170.66666625,4224.75757534,20.606060604,4789.8787874,3218.66666634,4432.36363592,57.6969696912,42.0,42.0,?
2017-08-07 12:05:20.787200,4526.12121167,3721.45454508,4702.30302983,4092.36363595,3789.96969659,465.69696965,3914.12121173,688.242424174,4248.96969654,465.69696965,4419.99999956,156.60606059,4142.33333292,3391.75757542,4314.39393896,3012.6060603,4450.90909046,3338.18181785,4108.84848444,424.484848442,4367.96969653,4170.66666625,4222.69696927,20.606060604,4796.06060558,3218.66666634,4433.90909047,57.6969696912,42.0,42.0,?
2017-08-07 12:05:20.795364,4522.51515106,3721.45454508,4701.78787832,4092.36363595,3790.99999962,465.69696965,3903.81818143,688.242424174,4244.84848442,465.69696965,4413.81818138,156.60606059,4142.33333292,3391.75757542,4314.90909048,3012.6060603,4455.03030258,3338.18181785,4105.24242383,424.484848442,4366.42424199,4170.66666625,4207.75757534,16.4848484832,4800.69696922,3218.66666634,4433.39393895,57.6969696912,42.0,42.0,?
2017-08-07 12:05:20.810646,4519.42424197,3721.45454508,4692.51515105,4092.36363595,3783.78787841,465.69696965,3898.15151476,688.242424174,4245.87878745,465.69696965,4413.30302986,156.60606059,4135.63636322,3391.75757542,4313.87878745,3012.6060603,4446.27272683,3338.18181785,4104.72727232,424.484848442,4360.24242381,4170.66666625,4205.18181776,16.4848484832,4788.84848437,3226.90909059,4430.81818138,57.6969696912,42.0,42.0,?
2017-08-07 12:05:20.815925,4522.51515106,3721.45454508,4688.39393893,4092.36363595,3779.15151477,465.69696965,3901.75757537,688.242424174,4248.96969654,465.69696965,4421.03030259,156.60606059,4139.24242383,3391.75757542,4319.0303026,3012.6060603,4447.30302986,3338.18181785,4108.84848444,420.363636322,4364.36363593,4170.66666625,4227.33333291,16.4848484832,4787.81818134,3226.90909059,4430.30302986,57.6969696912,42.0,42.0,?
2017-08-07 12:05:20.818985,4520.454545,3721.45454508,4688.90909044,4092.36363595,3782.24242386,465.69696965,3897.63636325,688.242424174,4245.87878745,465.69696965,4411.2424238,156.60606059,4134.60606019,3391.75757542,4313.36363593,3012.6060603,4443.18181774,3338.18181785,4102.66666626,420.363636322,4361.78787835,4178.90909049,4216.51515109,16.4848484832,4789.8787874,3226.90909059,4427.21212077,57.6969696912,42.0,42.0,?
2017-08-07 12:05:20.833796,4520.454545,3721.45454508,4688.90909044,4092.36363595,3782.24242386,465.69696965,3897.63636325,688.242424174,4245.87878745,465.69696965,4411.2424238,156.60606059,4134.60606019,3391.75757542,4313.36363593,3012.6060603,4443.18181774,3338.18181785,4102.66666626,420.363636322,4361.78787835,4178.90909049,4216.51515109,16.4848484832,4789.8787874,3226.90909059,4427.21212077,57.6969696912,42.0,42.0,?
2017-08-07 12:05:20.836738,4516.8484844,3721.45454508,4688.90909044,4092.36363595,3783.78787841,465.69696965,3894.03030264,688.242424174,4239.69696927,465.69696965,4415.87878744,156.60606059,4141.8181814,3391.75757542,4314.90909048,3012.6060603,4441.63636319,3338.18181785,4108.33333292,420.363636322,4359.21212078,4178.90909049,4220.63636321,16.4848484832,4787.30302982,3226.90909059,4420.51515107,57.6969696912,42.0,42.0,?
2017-08-07 12:05:20.843124,4522.51515106,3721.45454508,4695.09090862,4092.36363595,3783.78787841,465.69696965,3894.03030264,688.242424174,4243.81818139,465.69696965,4415.87878744,156.60606059,4141.8181814,3391.75757542,4314.90909048,3012.6060603,4441.63636319,3338.18181785,4108.33333292,420.363636322,4359.21212078,4178.90909049,4219.60606018,16.4848484832,4787.30302982,3226.90909059,4425.66666622,57.6969696912,42.0,42.0,?
2017-08-07 12:05:20.856797,4522.51515106,3721.45454508,4695.09090862,4092.36363595,3786.8787875,465.69696965,3898.66666628,688.242424174,4243.81818139,465.69696965,4416.90909047,156.60606059,4141.30302989,3391.75757542,4316.45454502,3012.6060603,4446.78787834,3338.18181785,4111.93939353,420.363636322,4367.96969653,4178.90909049,4219.60606018,16.4848484832,4795.03030255,3226.90909059,4432.36363592,57.6969696912,42.0,42.0,?
2017-08-07 12:05:20.861525,4523.03030258,3721.45454508,4696.63636317,4092.36363595,3791.51515114,465.69696965,3902.27272688,688.242424174,4245.36363594,465.69696965,4412.78787835,156.60606059,4136.15151474,3391.75757542,4314.90909048,3012.6060603,4449.87878743,3338.18181785,4110.39393898,420.363636322,4371.57575714,4178.90909049,4220.63636321,16.4848484832,4796.5757571,3226.90909059,4427.72727228,57.6969696912,42.0,42.0,?
2017-08-07 12:05:20.865665,4523.03030258,3721.45454508,4699.72727226,4092.36363595,3796.15151477,465.69696965,3899.69696931,688.242424174,4242.27272685,465.69696965,4408.66666623,156.60606059,4137.18181777,3391.75757542,4315.93939351,3012.6060603,4455.5454541,3338.18181785,4108.84848444,420.363636322,4372.09090865,4178.90909049,4221.66666624,16.4848484832,4801.72727225,3226.90909059,4426.69696925,57.6969696912,42.0,42.0,?
2017-08-07 12:05:20.876420,4527.1515147,3721.45454508,4701.78787832,4092.36363595,3798.72727235,465.69696965,3899.69696931,688.242424174,4243.30302988,465.69696965,4413.30302986,156.60606059,4142.33333292,3391.75757542,4315.93939351,3012.6060603,4463.78787834,3338.18181785,4112.45454504,420.363636322,4368.99999956,4178.90909049,4223.7272723,16.4848484832,4800.69696922,3226.90909059,4433.90909047,57.6969696912,42.0,42.0,?
2017-08-07 12:05:20.882179,4530.7575753,3721.45454508,4701.2727268,4092.36363595,3800.78787841,465.69696965,3900.21212082,688.242424174,4249.48484806,465.69696965,4421.5454541,156.60606059,4149.03030262,3391.75757542,4317.99999957,3012.6060603,4467.39393895,3338.18181785,4109.36363595,420.363636322,4371.06060562,4178.90909049,4221.15151473,16.4848484832,4803.27272679,3226.90909059,4436.48484804,57.6969696912,42.0,42.0,?
2017-08-07 12:05:20.891746,4530.7575753,3721.45454508,4701.78787832,4092.36363595,3800.27272689,465.69696965,3895.57575719,688.242424174,4255.15151473,465.69696965,4425.15151471,156.60606059,4154.69696928,3391.75757542,4323.66666623,3012.6060603,4462.75757531,3338.18181785,4110.39393898,420.363636322,4376.21212077,4178.90909049,4221.15151473,16.4848484832,4808.42424194,3226.90909059,4432.36363592,57.6969696912,42.0,42.0,?
2017-08-07 12:05:20.899699,4531.78787833,3721.45454508,4708.99999953,4092.36363595,3800.27272689,465.69696965,3909.99999961,688.242424174,4247.424242,465.69696965,4419.48484804,156.60606059,4158.8181814,3391.75757542,4328.30302987,3012.6060603,4491.60606016,3338.18181785,4123.27272686,420.363636322,4380.84848441,4178.90909049,4245.87878745,16.4848484832,4809.45454497,3226.90909059,4436.99999956,57.6969696912,42.0,42.0,?
2017-08-07 12:05:20.908053,4531.78787833,3721.45454508,4708.99999953,4092.36363595,3800.27272689,465.69696965,3909.99999961,688.242424174,4247.424242,465.69696965,4419.48484804,156.60606059,4158.8181814,3391.75757542,4328.30302987,3012.6060603,4491.60606016,3338.18181785,4123.27272686,420.363636322,4380.84848441,4178.90909049,4245.87878745,16.4848484832,4809.45454497,3226.90909059,4436.99999956,57.6969696912,42.0,42.0,?
2017-08-07 12:05:20.914209,4533.33333288,3721.45454508,4711.06060559,4092.36363595,3804.90909053,465.69696965,3905.87878749,688.242424174,4252.06060564,465.69696965,4413.30302986,156.60606059,4156.75757534,3391.75757542,4319.0303026,3012.6060603,4495.21212076,3338.18181785,4108.33333292,420.363636322,4380.84848441,4178.90909049,4229.39393897,16.4848484832,4813.57575709,3226.90909059,4438.03030259,57.6969696912,42.0,42.0,?
2017-08-07 12:05:20.920334,4529.72727227,3721.45454508,4709.51515104,4092.36363595,3802.33333295,465.69696965,3898.15151476,688.242424174,4253.60606018,465.69696965,4416.90909047,156.60606059,4147.99999959,3391.75757542,4319.0303026,3012.6060603,4495.21212076,3338.18181785,4107.81818141,420.363636322,4371.57575714,4178.90909049,4215.99999958,16.4848484832,4802.75757528,3226.90909059,4434.42424198,57.6969696912,42.0,42.0,?
2017-08-07 12:05:20.929867,4525.09090864,3721.45454508,4704.87878741,4092.36363595,3799.75757538,465.69696965,3898.66666628,688.242424174,4248.96969654,465.69696965,4417.9393935,156.60606059,4142.84848443,3391.75757542,4323.15151472,3012.6060603,4514.27272682,3338.18181785,4116.06060565,420.363636322,4367.96969653,4178.90909049,4218.06060564,16.4848484832,4795.54545407,3226.90909059,4431.33333289,57.6969696912,42.0,42.0,?
2017-08-07 12:05:20.944330,4525.09090864,3721.45454508,4702.81818135,4092.36363595,3799.24242386,465.69696965,3899.69696931,688.242424174,4246.39393897,465.69696965,4413.30302986,156.60606059,4141.30302989,3391.75757542,4318.51515108,3012.6060603,4525.60606015,3338.18181785,4117.09090868,420.363636322,4373.12121168,4178.90909049,4220.1212117,16.4848484832,4800.69696922,3226.90909059,4431.33333289,57.6969696912,42.0,42.0,?
2017-08-07 12:05:20.964405,4525.60606015,3721.45454508,4707.9696965,4092.36363595,3800.78787841,465.69696965,3898.66666628,688.242424174,4250.51515109,465.69696965,4414.84848441,156.60606059,4140.27272686,3391.75757542,4315.93939351,3012.6060603,4522.51515106,3338.18181785,4117.09090868,420.363636322,4376.21212077,4178.90909049,4226.8181814,16.4848484832,4804.30302982,3226.90909059,4431.33333289,57.6969696912,42.0,42.0,?
2017-08-07 12:05:20.969946,4526.63636318,3721.45454508,4710.54545407,4092.36363595,3803.8787875,465.69696965,3900.72727234,688.242424174,4252.57575715,465.69696965,4417.9393935,156.60606059,4140.78787837,3391.75757542,4319.0303026,3012.6060603,4521.48484803,3338.18181785,4113.48484807,420.363636322,4373.12121168,4178.90909049,4224.24242382,16.4848484832,4800.69696922,3226.90909059,4430.81818138,57.6969696912,42.0,42.0,?
2017-08-07 12:05:20.974243,4529.21212076,3721.45454508,4708.48484801,4092.36363595,3804.90909053,465.69696965,3900.21212082,688.242424174,4248.96969654,465.69696965,4411.2424238,156.60606059,4139.24242383,3391.75757542,4309.75757533,3012.6060603,4518.90909046,3338.18181785,4111.93939353,420.363636322,4367.45454502,4178.90909049,4211.87878746,16.4848484832,4794.51515104,3226.90909059,4429.27272683,57.6969696912,42.0,42.0,?
2017-08-07 12:05:20.985023,4529.21212076,3721.45454508,4706.93939347,4092.36363595,3802.33333295,465.69696965,3897.63636325,688.242424174,4248.96969654,465.69696965,4411.2424238,156.60606059,4139.24242383,3391.75757542,4309.75757533,3012.6060603,4518.90909046,3338.18181785,4111.93939353,420.363636322,4367.45454502,4178.90909049,4211.87878746,16.4848484832,4794.51515104,3226.90909059,4422.57575713,57.6969696912,42.0,42.0,?
2017-08-07 12:05:20.998803,4529.21212076,3721.45454508,4700.75757529,4092.36363595,3797.1818178,465.69696965,3897.12121173,688.242424174,4250.51515109,465.69696965,4420.51515107,156.60606059,4145.93939352,3391.75757542,4316.96969654,3012.6060603,4534.87878743,3338.18181785,4107.81818141,420.363636322,4372.60606017,4178.90909049,4222.69696927,16.4848484832,4802.24242376,3226.90909059,4427.72727228,57.6969696912,42.0,42.0,?
2017-08-07 12:05:20.998903,4529.21212076,3721.45454508,4700.75757529,4092.36363595,3797.1818178,465.69696965,3897.12121173,688.242424174,4250.51515109,465.69696965,4420.51515107,156.60606059,4145.93939352,3391.75757542,4316.96969654,3012.6060603,4534.87878743,3338.18181785,4107.81818141,420.363636322,4372.60606017,4178.90909049,4222.69696927,16.4848484832,4802.24242376,3226.90909059,4427.72727228,57.6969696912,42.0,42.0,?
2017-08-07 12:05:21.002307,4529.21212076,3721.45454508,4699.72727226,4092.36363595,3793.5757572,465.69696965,3894.54545416,688.242424174,4247.424242,465.69696965,4417.9393935,156.60606059,4152.63636322,3391.75757542,4313.36363593,3012.6060603,4555.99999954,3338.18181785,4108.84848444,420.363636322,4371.57575714,4178.90909049,4217.03030261,16.4848484832,4801.72727225,3226.90909059,4429.27272683,57.6969696912,42.0,42.0,?
2017-08-07 12:05:21.006650,4525.60606015,3721.45454508,4698.18181771,4092.36363595,3792.03030265,465.69696965,3892.4848481,688.242424174,4249.48484806,465.69696965,4417.42424198,156.60606059,4158.8181814,3391.75757542,4322.12121169,3012.6060603,4584.33333287,3338.18181785,4112.96969656,420.363636322,4364.87878744,4178.90909049,4220.63636321,16.4848484832,4794.51515104,3226.90909059,4418.45454501,57.6969696912,42.0,42.0,?
2017-08-07 12:05:21.009804,4528.18181773,3721.45454508,4698.18181771,4092.36363595,3791.51515114,465.69696965,3894.03030264,688.242424174,4252.57575715,465.69696965,4423.60606016,156.60606059,4158.30302989,3391.75757542,4330.87878745,3012.6060603,4605.96969651,3338.18181785,4121.2121208,420.363636322,4367.96969653,4178.90909049,4227.33333291,16.4848484832,4797.60606013,3226.90909059,4420.51515107,57.6969696912,42.0,42.0,?
2017-08-07 12:05:21.014758,4532.81818136,3721.45454508,4701.2727268,4092.36363595,3792.54545417,465.69696965,3895.06060567,688.242424174,4245.36363594,465.69696965,4416.90909047,156.60606059,4153.66666625,3391.75757542,4329.3333329,3012.6060603,4616.78787833,3338.18181785,4122.75757535,420.363636322,4380.3333329,4178.90909049,4224.24242382,16.4848484832,4809.45454497,3226.90909059,4430.30302986,57.6969696912,42.0,42.0,?
2017-08-07 12:05:21.028083,4530.7575753,3721.45454508,4703.84848438,4092.36363595,3798.21212083,465.69696965,3895.57575719,688.242424174,4234.03030261,465.69696965,4401.96969653,156.60606059,4149.54545413,3391.75757542,4327.27272684,3012.6060603,4622.96969651,3338.18181785,4119.15151474,420.363636322,4379.81818138,4178.90909049,4218.57575715,16.4848484832,4812.03030255,3226.90909059,4429.27272683,57.6969696912,42.0,42.0,?
2017-08-07 12:05:21.035140,4529.72727227,3721.45454508,4707.45454498,4092.36363595,3804.39393901,465.69696965,3896.60606022,688.242424174,4238.15151473,465.69696965,4403.51515107,156.60606059,4151.60606019,3391.75757542,4327.78787836,3012.6060603,4639.45454499,3338.18181785,4122.75757535,420.363636322,4373.6363632,4178.90909049,4228.87878746,16.4848484832,4806.8787874,3226.90909059,4428.75757531,57.6969696912,42.0,42.0,?
2017-08-07 12:05:21.038772,4533.33333288,3721.45454508,4708.99999953,4092.36363595,3802.84848447,465.69696965,3897.63636325,688.242424174,4255.66666624,465.69696965,4417.9393935,156.60606059,4157.78787837,3391.75757542,4328.30302987,3012.6060603,4652.84848438,3338.18181785,4121.72727232,420.363636322,4374.15151471,4178.90909049,4235.57575715,16.4848484832,4802.24242376,3226.90909059,4430.30302986,57.6969696912,42.0,42.0,?
2017-08-07 12:05:21.047107,4531.27272682,3721.45454508,4707.9696965,4092.36363595,3797.1818178,465.69696965,3897.12121173,688.242424174,4262.87878745,465.69696965,4424.12121168,156.60606059,4154.18181777,3391.75757542,4322.12121169,3012.6060603,4644.09090863,3338.18181785,4105.24242383,420.363636322,4368.48484805,4178.90909049,4220.1212117,16.4848484832,4796.5757571,3226.90909059,4423.09090865,57.6969696912,42.0,42.0,?
2017-08-07 12:05:21.054153,4526.12121167,3721.45454508,4706.93939347,4092.36363595,3796.66666629,465.69696965,3896.0909087,688.242424174,4255.66666624,465.69696965,4422.57575713,156.60606059,4144.39393898,3391.75757542,4315.93939351,3012.6060603,4634.30302984,3338.18181785,4099.06060565,420.363636322,4363.84848441,4178.90909049,4211.87878746,16.4848484832,4795.03030255,3226.90909059,4418.96969653,57.6969696912,42.0,42.0,?
2017-08-07 12:05:21.061449,4527.66666621,3721.45454508,4707.45454498,4092.36363595,3800.78787841,465.69696965,3897.12121173,688.242424174,4249.99999958,465.69696965,4419.99999956,156.60606059,4149.54545413,3391.75757542,4318.51515108,3012.6060603,4640.48484802,3338.18181785,4113.99999959,420.363636322,4365.39393896,4178.90909049,4219.09090867,16.4848484832,4798.12121164,3226.90909059,4425.66666622,57.6969696912,42.0,42.0,?
2017-08-07 12:05:21.069270,4532.81818136,3721.45454508,4710.54545407,4092.36363595,3803.8787875,465.69696965,3897.12121173,688.242424174,4248.96969654,465.69696965,4419.48484804,156.60606059,4155.72727231,3391.75757542,4317.99999957,3012.6060603,4647.69696923,3338.18181785,4121.72727232,420.363636322,4366.9393935,4178.90909049,4219.09090867,16.4848484832,4797.60606013,3226.90909059,4429.78787834,57.6969696912,42.0,42.0,?
2017-08-07 12:05:21.078023,4533.33333288,3721.45454508,4712.60606013,4092.36363595,3802.33333295,465.69696965,3895.57575719,688.242424174,4248.96969654,465.69696965,4420.51515107,156.60606059,4146.96969656,3391.75757542,4314.39393896,3012.6060603,4646.6666662,3338.18181785,4113.48484807,420.363636322,4366.9393935,4178.90909049,4220.63636321,16.4848484832,4793.99999952,3226.90909059,4428.75757531,57.6969696912,42.0,42.0,?
2017-08-07 12:05:21.085529,4529.72727227,3721.45454508,4709.51515104,4092.36363595,3799.75757538,465.69696965,3893.51515113,688.242424174,4244.84848442,465.69696965,4414.84848441,156.60606059,4140.78787837,3391.75757542,4316.96969654,3012.6060603,4645.63636317,3338.18181785,4104.2121208,420.363636322,4363.3333329,4178.90909049,4215.99999958,16.4848484832,4789.8787874,3226.90909059,4418.96969653,57.6969696912,42.0,42.0,?
2017-08-07 12:05:21.093563,4526.12121167,3721.45454508,4706.93939347,4092.36363595,3800.27272689,465.69696965,3887.84848446,688.242424174,4239.18181776,465.69696965,4404.03030259,156.60606059,4141.8181814,3391.75757542,4318.51515108,3012.6060603,4644.09090863,3338.18181785,4109.36363595,420.363636322,4358.69696926,4178.90909049,4206.21212079,16.4848484832,4787.81818134,3226.90909059,4412.27272683,57.6969696912,42.0,42.0,?
2017-08-07 12:05:21.100546,4526.63636318,3721.45454508,4708.99999953,4092.36363595,3801.30302992,465.69696965,3880.12121173,688.242424174,4235.06060564,465.69696965,4405.06060562,156.60606059,4143.36363595,3391.75757542,4316.96969654,3012.6060603,4644.09090863,3338.18181785,4124.30302989,420.363636322,4363.84848441,4178.90909049,4213.93939352,16.4848484832,4793.48484801,3226.90909059,4421.5454541,57.6969696912,42.0,42.0,?
2017-08-07 12:05:21.111727,4525.60606015,3721.45454508,4707.9696965,4092.36363595,3793.06060568,465.69696965,3878.57575719,688.242424174,4235.57575715,465.69696965,4414.33333289,156.60606059,4144.39393898,3391.75757542,4317.48484805,3012.6060603,4636.3636359,3338.18181785,4127.39393898,420.363636322,4364.36363593,4178.90909049,4222.69696927,16.4848484832,4793.99999952,3226.90909059,4424.63636319,57.6969696912,42.0,42.0,?
2017-08-07 12:05:21.116006,4522.51515106,3721.45454508,4702.30302983,4092.36363595,3783.27272689,465.69696965,3881.66666628,688.242424174,4237.1212117,465.69696965,4414.84848441,156.60606059,4144.90909049,3391.75757542,4317.48484805,3012.6060603,4575.57575712,3338.18181785,4113.99999959,420.363636322,4353.03030259,4178.90909049,4208.27272685,16.4848484832,4785.75757528,3226.90909059,4409.18181774,57.6969696912,42.0,42.0,?
2017-08-07 12:05:21.126660,4520.96969652,3721.45454508,4701.2727268,4092.36363595,3780.69696932,465.69696965,3880.63636325,688.242424174,4235.57575715,465.69696965,4409.18181774,156.60606059,4142.84848443,3391.75757542,4314.39393896,3012.6060603,4479.75757531,3338.18181785,4106.27272686,420.363636322,4349.42424199,4178.90909049,4188.69696928,16.4848484832,4783.1818177,3226.90909059,4402.99999956,57.6969696912,42.0,42.0,?
2017-08-07 12:05:21.132568,4525.09090864,3721.45454508,4706.42424195,4092.36363595,3783.78787841,465.69696965,3878.57575719,688.242424174,4234.03030261,465.69696965,4406.09090865,156.60606059,4136.15151474,3391.75757542,4308.21212078,3012.6060603,4439.06060562,3338.18181785,4111.93939353,420.363636322,4360.24242381,4178.90909049,4191.78787837,16.4848484832,4791.42424195,3226.90909059,4412.78787835,57.6969696912,42.0,42.0,?
2017-08-07 12:05:21.140643,4527.66666621,3721.45454508,4710.54545407,4092.36363595,3789.45454508,465.69696965,3880.12121173,688.242424174,4231.96969655,465.69696965,4405.06060562,156.60606059,4126.36363595,3391.75757542,4304.60606018,3012.6060603,4459.15151471,3338.18181785,4118.63636322,420.363636322,4366.9393935,4178.90909049,4205.69696928,16.4848484832,4794.51515104,3226.90909059,4413.81818138,57.6969696912,42.0,42.0,?
2017-08-07 12:05:21.148234,4524.57575712,3721.45454508,4705.90909044,4092.36363595,3785.33333295,465.69696965,3879.60606022,688.242424174,4235.06060564,465.69696965,4405.57575714,156.60606059,4121.2121208,3391.75757542,4303.57575715,3012.6060603,4471.51515107,3338.18181785,4113.99999959,420.363636322,4357.66666623,4178.90909049,4205.18181776,16.4848484832,4784.72727225,3226.90909059,4405.57575714,57.6969696912,42.0,42.0,?
2017-08-07 12:05:21.156803,4524.06060561,3721.45454508,4702.81818135,4092.36363595,3782.24242386,465.69696965,3878.06060567,688.242424174,4240.21212079,465.69696965,4408.15151471,156.60606059,4127.9090905,3391.75757542,4302.0303026,3012.6060603,4467.90909046,3338.18181785,4106.27272686,420.363636322,4353.54545411,4178.90909049,4192.8181814,16.4848484832,4784.72727225,3226.90909059,4408.15151471,57.6969696912,42.0,42.0,?
2017-08-07 12:05:21.163376,4532.81818136,3721.45454508,4709.51515104,4092.36363595,3793.06060568,465.69696965,3880.12121173,688.242424174,4238.15151473,465.69696965,4412.27272683,156.60606059,4136.15151474,3391.75757542,4306.15151472,3012.6060603,4478.21212076,3338.18181785,4109.87878747,420.363636322,4365.90909047,4178.90909049,4189.72727231,16.4848484832,4798.12121164,3226.90909059,4419.48484804,57.6969696912,42.0,42.0,?
2017-08-07 12:05:21.173166,4536.93939349,3721.45454508,4714.15151468,4092.36363595,3797.69696932,465.69696965,3881.66666628,688.242424174,4233.51515109,465.69696965,4412.78787835,156.60606059,4139.24242383,3391.75757542,4313.36363593,3012.6060603,4488.51515107,3338.18181785,4114.5151511,420.363636322,4371.06060562,4178.90909049,4192.30302988,16.4848484832,4799.66666619,3226.90909059,4419.99999956,57.6969696912,42.0,42.0,?
2017-08-07 12:05:21.178951,4530.24242379,3721.45454508,4708.99999953,4092.36363595,3785.33333295,465.69696965,3881.15151476,688.242424174,4232.48484806,465.69696965,4410.21212077,156.60606059,4140.78787837,3391.75757542,4315.93939351,3012.6060603,4479.75757531,3338.18181785,4113.48484807,420.363636322,4358.18181775,4178.90909049,4186.1212117,16.4848484832,4789.36363588,3226.90909059,4412.27272683,57.6969696912,42.0,42.0,?
2017-08-07 12:05:21.186264,4528.18181773,3721.45454508,4705.39393892,4092.36363595,3782.24242386,465.69696965,3881.15151476,688.242424174,4235.06060564,465.69696965,4411.2424238,156.60606059,4143.36363595,3391.75757542,4323.15151472,3012.6060603,4464.30302986,3338.18181785,4114.5151511,420.363636322,4355.09090866,4178.90909049,4192.30302988,16.4848484832,4789.8787874,3226.90909059,4411.2424238,57.6969696912,42.0,42.0,?
2017-08-07 12:05:21.196176,4533.33333288,3721.45454508,4708.48484801,4092.36363595,3786.8787875,465.69696965,3880.63636325,688.242424174,4240.21212079,465.69696965,4415.87878744,156.60606059,4144.39393898,3391.75757542,4325.72727229,3012.6060603,4463.27272683,3338.18181785,4117.60606019,420.363636322,4367.96969653,4178.90909049,4206.72727231,16.4848484832,4797.60606013,3226.90909059,4415.36363592,57.6969696912,42.0,42.0,?
2017-08-07 12:05:21.204105,4533.33333288,3713.21212084,4707.9696965,4092.36363595,3785.33333295,465.69696965,3878.57575719,688.242424174,4240.7272723,465.69696965,4414.33333289,156.60606059,4139.75757534,3391.75757542,4315.93939351,3012.6060603,4475.63636319,3338.18181785,4110.9090905,420.363636322,4367.96969653,4178.90909049,4205.69696928,16.4848484832,4797.60606013,3226.90909059,4416.90909047,57.6969696912,42.0,42.0,?
2017-08-07 12:05:21.211025,4530.24242379,3713.21212084,4705.39393892,4100.6060602,3785.33333295,465.69696965,3876.51515113,688.242424174,4233.51515109,465.69696965,4409.18181774,156.60606059,4138.2121208,3391.75757542,4320.06060563,3012.6060603,4481.81818137,3338.18181785,4105.24242383,420.363636322,4360.24242381,4178.90909049,4199.5151511,16.4848484832,4792.96969649,3226.90909059,4415.36363592,57.6969696912,42.0,42.0,?
2017-08-07 12:05:21.217526,4529.72727227,3713.21212084,4707.9696965,4100.6060602,3788.93939356,465.69696965,3877.03030264,688.242424174,4240.7272723,465.69696965,4408.66666623,156.60606059,4142.84848443,3391.75757542,4329.3333329,3012.6060603,4479.75757531,3338.18181785,4108.84848444,420.363636322,4358.69696926,4178.90909049,4198.99999958,16.4848484832,4786.78787831,3226.90909059,4411.75757532,57.6969696912,42.0,42.0,?
2017-08-07 12:05:21.226295,4529.21212076,3713.21212084,4711.5757571,4100.6060602,3789.45454508,465.69696965,3882.18181779,688.242424174,4250.51515109,465.69696965,4410.21212077,156.60606059,4143.36363595,3391.75757542,4317.99999957,3012.6060603,4476.1515147,3338.18181785,4107.81818141,420.363636322,4363.3333329,4178.90909049,4191.78787837,16.4848484832,4788.33333285,3226.90909059,4417.42424198,57.6969696912,42.0,42.0,?
2017-08-07 12:05:21.233900,4529.21212076,3713.21212084,4711.5757571,4100.6060602,3788.42424205,465.69696965,3882.18181779,679.999999932,4242.27272685,465.69696965,4414.33333289,156.60606059,4140.78787837,3391.75757542,4302.54545412,3012.6060603,4475.63636319,3338.18181785,4103.69696929,420.363636322,4370.03030259,4178.90909049,4184.57575716,16.4848484832,4799.66666619,3226.90909059,4431.84848441,57.6969696912,42.0,42.0,?
2017-08-07 12:05:21.242242,4529.72727227,3713.21212084,4712.09090862,4100.6060602,3787.39393902,465.69696965,3878.06060567,679.999999932,4234.03030261,465.69696965,4416.39393895,156.60606059,4137.69696928,3391.75757542,4302.0303026,3012.6060603,4478.72727228,3338.18181785,4100.6060602,420.363636322,4370.03030259,4178.90909049,4191.78787837,16.4848484832,4799.15151467,3226.90909059,4436.99999956,57.6969696912,42.0,42.0,?
2017-08-07 12:05:21.249799,4525.09090864,3713.21212084,4710.03030256,4100.6060602,3784.30302992,465.69696965,3878.06060567,679.999999932,4234.54545412,465.69696965,4409.69696926,148.363636349,4127.39393898,3391.75757542,4301.51515109,3012.6060603,4481.30302985,3338.18181785,4094.42424201,420.363636322,4358.18181775,4178.90909049,4192.8181814,16.4848484832,4787.30302982,3226.90909059,4432.87878744,57.6969696912,42.0,42.0,?
2017-08-07 12:05:21.260043,4521.99999955,3713.21212084,4702.30302983,4100.6060602,3780.1818178,465.69696965,3879.0909087,679.999999932,4239.18181776,465.69696965,4406.60606017,148.363636349,4122.24242383,3387.6363633,4294.30302987,3012.6060603,4491.60606016,3338.18181785,4088.24242383,420.363636322,4354.57575714,4178.90909049,4184.06060564,16.4848484832,4787.30302982,3226.90909059,4432.87878744,57.6969696912,42.0,42.0,?
2017-08-07 12:05:21.266502,4524.57575712,3713.21212084,4701.2727268,4100.6060602,3784.81818144,465.69696965,3878.57575719,679.999999932,4246.90909048,465.69696965,4414.33333289,148.363636349,4133.57575716,3387.6363633,4298.42424199,3004.36363606,4507.57575713,3338.18181785,4090.30302989,420.363636322,4362.81818138,4178.90909049,4189.72727231,16.4848484832,4790.90909043,3226.90909059,4440.09090865,57.6969696912,42.0,42.0,?
2017-08-07 12:05:21.276134,4527.66666621,3713.21212084,4708.99999953,4100.6060602,3790.48484811,465.69696965,3878.06060567,679.999999932,4252.57575715,465.69696965,4421.5454541,148.363636349,4141.30302989,3387.6363633,4313.87878745,3004.36363606,4511.69696925,3309.333333,4096.48484808,420.363636322,4363.84848441,4178.90909049,4189.72727231,16.4848484832,4790.90909043,3226.90909059,4444.72727228,57.6969696912,42.0,42.0,?
2017-08-07 12:05:21.281076,4527.1515147,3713.21212084,4709.51515104,4100.6060602,3787.39393902,465.69696965,3879.60606022,679.999999932,4250.51515109,465.69696965,4419.99999956,148.363636349,4143.87878746,3387.6363633,4319.0303026,3004.36363606,4509.12121167,3309.333333,4099.57575717,412.12121208,4359.21212078,4178.90909049,4180.45454504,16.4848484832,4789.8787874,3226.90909059,4444.72727228,57.6969696912,42.0,42.0,?
2017-08-07 12:05:21.289941,4526.63636318,3713.21212084,4706.42424195,4100.6060602,3784.81818144,465.69696965,3880.63636325,679.999999932,4247.424242,465.69696965,4418.96969653,148.363636349,4151.09090868,3387.6363633,4313.87878745,3004.36363606,4515.81818137,3309.333333,4104.72727232,412.12121208,4363.3333329,4178.90909049,4188.69696928,16.4848484832,4791.42424195,3226.90909059,4446.78787834,57.6969696912,42.0,42.0,?
2017-08-07 12:05:21.296747,4528.18181773,3713.21212084,4709.51515104,4100.6060602,3790.48484811,465.69696965,3880.12121173,679.999999932,4244.33333291,465.69696965,4418.45454501,148.363636349,4155.2121208,3387.6363633,4318.51515108,3004.36363606,4524.57575712,3309.333333,4106.78787838,412.12121208,4369.51515108,4178.90909049,4197.96969655,20.606060604,4795.03030255,3226.90909059,4450.39393895,57.6969696912,42.0,42.0,?
2017-08-07 12:05:21.303213,4529.21212076,3713.21212084,4707.9696965,4100.6060602,3793.5757572,465.69696965,3877.03030264,679.999999932,4245.87878745,465.69696965,4415.87878744,148.363636349,4161.39393898,3387.6363633,4328.30302987,3004.36363606,4530.7575753,3309.333333,4107.30302989,412.12121208,4368.48484805,4178.90909049,4193.84848443,20.606060604,4796.5757571,3214.54545422,4447.30302986,57.6969696912,42.0,42.0,?
2017-08-07 12:05:21.312216,4528.69696924,3713.21212084,4701.78787832,4100.6060602,3790.99999962,465.69696965,3878.57575719,679.999999932,4251.54545412,465.69696965,4420.51515107,148.363636349,4172.21212079,3387.6363633,4334.48484805,3004.36363606,4538.99999955,3309.333333,4112.45454504,416.242424201,4364.36363593,4178.90909049,4199.5151511,20.606060604,4791.42424195,3214.54545422,4446.78787834,57.6969696912,42.0,42.0,?
2017-08-07 12:05:21.319881,4526.63636318,3713.21212084,4701.2727268,4100.6060602,3789.45454508,465.69696965,3881.15151476,679.999999932,4244.84848442,465.69696965,4421.5454541,148.363636349,4164.99999958,3387.6363633,4330.36363593,3004.36363606,4544.1515147,3309.333333,4112.45454504,416.242424201,4363.3333329,4183.03030261,4209.30302988,20.606060604,4786.27272679,3214.54545422,4449.87878743,57.6969696912,42.0,42.0,?
2017-08-07 12:05:21.327991,4526.12121167,3713.21212084,4701.78787832,4100.6060602,3788.42424205,465.69696965,3872.39393901,679.999999932,4234.03030261,465.69696965,4409.18181774,148.363636349,4146.96969656,3387.6363633,4317.99999957,3004.36363606,4543.63636318,3309.333333,4104.72727232,416.242424201,4361.27272684,4183.03030261,4199.5151511,28.8484848456,4786.78787831,3214.54545422,4441.12121168,57.6969696912,42.0,42.0,?
2017-08-07 12:05:21.335492,4526.12121167,3713.21212084,4698.69696923,4100.6060602,3787.90909053,465.69696965,3862.60606022,679.999999932,4233.51515109,465.69696965,4400.9393935,148.363636349,4142.84848443,3387.6363633,4312.84848442,3004.36363606,4545.18181773,3309.333333,4101.63636323,416.242424201,4355.60606017,4183.03030261,4191.78787837,28.8484848456,4785.24242376,3214.54545422,4436.48484804,57.6969696912,42.0,42.0,?
2017-08-07 12:05:21.342582,4526.63636318,3713.21212084,4701.2727268,4100.6060602,3786.36363599,465.69696965,3865.1818178,679.999999932,4232.48484806,465.69696965,4409.69696926,148.363636349,4146.96969656,3387.6363633,4312.84848442,3004.36363606,4548.27272682,3309.333333,4104.2121208,416.242424201,4358.69696926,4183.03030261,4201.06060564,28.8484848456,4788.33333285,3214.54545422,4447.30302986,57.6969696912,42.0,42.0,?
2017-08-07 12:05:21.350490,4530.24242379,3713.21212084,4706.42424195,4100.6060602,3783.27272689,465.69696965,3872.90909052,679.999999932,4230.93939352,465.69696965,4416.39393895,148.363636349,4152.63636322,3387.6363633,4313.36363593,3004.36363606,4544.1515147,3309.333333,4110.9090905,416.242424201,4370.54545411,4183.03030261,4202.60606019,28.8484848456,4799.66666619,3214.54545422,4453.99999955,57.6969696912,42.0,42.0,?
2017-08-07 12:05:21.358573,4529.21212076,3713.21212084,4703.33333286,4100.6060602,3783.27272689,465.69696965,3872.39393901,679.999999932,4238.15151473,465.69696965,4413.81818138,148.363636349,4160.36363595,3387.6363633,4323.15151472,3004.36363606,4542.09090864,3309.333333,4117.60606019,416.242424201,4372.60606017,4183.03030261,4202.60606019,28.8484848456,4802.24242376,3214.54545422,4447.81818137,57.6969696912,42.0,42.0,?
2017-08-07 12:05:21.366127,4525.09090864,3713.21212084,4698.18181771,4100.6060602,3783.27272689,465.69696965,3864.66666628,679.999999932,4243.81818139,465.69696965,4414.33333289,148.363636349,4162.42424201,3387.6363633,4328.81818139,3004.36363606,4549.30302985,3309.333333,4111.93939353,416.242424201,4368.99999956,4183.03030261,4210.33333291,28.8484848456,4799.15151467,3214.54545422,4444.21212077,57.6969696912,42.0,42.0,?
2017-08-07 12:05:21.375274,4528.18181773,3713.21212084,4700.75757529,4100.6060602,3783.27272689,465.69696965,3865.1818178,679.999999932,4237.63636321,465.69696965,4412.27272683,148.363636349,4151.60606019,3387.6363633,4321.09090866,3004.36363606,4555.48484803,3309.333333,4100.6060602,416.242424201,4370.54545411,4183.03030261,4204.66666625,28.8484848456,4799.15151467,3214.54545422,4446.78787834,57.6969696912,42.0,42.0,?
2017-08-07 12:05:21.385037,4532.81818136,3713.21212084,4701.2727268,4100.6060602,3784.30302992,465.69696965,3866.21212083,679.999999932,4232.99999958,465.69696965,4403.51515107,148.363636349,4138.2121208,3387.6363633,4314.90909048,3004.36363606,4557.54545409,3309.333333,4106.27272686,416.242424201,4371.06060562,4183.03030261,4190.75757534,28.8484848456,4798.12121164,3214.54545422,4446.27272683,57.6969696912,42.0,42.0,?
2017-08-07 12:05:21.391473,4527.66666621,3713.21212084,4691.99999953,4100.6060602,3785.33333295,465.69696965,3863.12121173,679.999999932,4236.09090867,465.69696965,4405.57575714,148.363636349,4143.87878746,3387.6363633,4318.51515108,3004.36363606,4560.63636318,3309.333333,4117.09090868,416.242424201,4366.42424199,4183.03030261,4198.99999958,28.8484848456,4789.8787874,3214.54545422,4444.72727228,57.6969696912,42.0,42.0,?
2017-08-07 12:05:21.397869,4524.57575712,3713.21212084,4687.36363589,4100.6060602,3788.42424205,465.69696965,3866.21212083,679.999999932,4241.75757533,465.69696965,4414.84848441,148.363636349,4158.8181814,3387.6363633,4325.21212078,3004.36363606,4560.63636318,3309.333333,4111.42424201,416.242424201,4365.90909047,4183.03030261,4206.72727231,28.8484848456,4786.27272679,3214.54545422,4445.2424238,57.6969696912,42.0,42.0,?
2017-08-07 12:05:21.405961,4531.78787833,3713.21212084,4694.06060559,4100.6060602,3793.5757572,465.69696965,3871.87878749,679.999999932,4244.33333291,465.69696965,4411.2424238,148.363636349,4153.15151474,3387.6363633,4323.15151472,3004.36363606,4559.09090864,3309.333333,4106.27272686,416.242424201,4369.51515108,4183.03030261,4192.8181814,28.8484848456,4791.42424195,3214.54545422,4446.78787834,57.6969696912,42.0,42.0,?
2017-08-07 12:05:21.415025,4534.87878743,3713.21212084,4695.09090862,4100.6060602,3796.15151477,465.69696965,3868.7878784,679.999999932,4240.7272723,465.69696965,4404.03030259,148.363636349,4138.2121208,3387.6363633,4311.30302987,3004.36363606,4565.78787833,3309.333333,4111.42424201,416.242424201,4369.51515108,4183.03030261,4194.36363594,28.8484848456,4791.93939346,3214.54545422,4449.87878743,57.6969696912,42.0,42.0,?
2017-08-07 12:05:21.421423,4528.69696924,3713.21212084,4686.84848438,4100.6060602,3792.03030265,465.69696965,3865.1818178,679.999999932,4236.60606018,465.69696965,4404.54545411,148.363636349,4138.72727231,3387.6363633,4308.7272723,3004.36363606,4573.51515106,3309.333333,4111.93939353,416.242424201,4366.9393935,4183.03030261,4207.75757534,28.8484848456,4788.84848437,3214.54545422,4448.33333289,57.6969696912,42.0,42.0,?
2017-08-07 12:05:21.428975,4524.57575712,3713.21212084,4680.15151468,4100.6060602,3786.36363599,465.69696965,3865.69696931,679.999999932,4236.60606018,465.69696965,4407.12121168,148.363636349,4144.39393898,3387.6363633,4321.60606017,3004.36363606,4574.54545409,3309.333333,4107.30302989,416.242424201,4361.27272684,4183.03030261,4203.1212117,28.8484848456,4785.24242376,3214.54545422,4438.03030259,57.6969696912,42.0,42.0,?
2017-08-07 12:05:21.437804,4527.1515147,3713.21212084,4679.12121165,4100.6060602,3790.99999962,465.69696965,3863.63636325,679.999999932,4236.60606018,465.69696965,4410.21212077,148.363636349,4145.93939352,3387.6363633,4329.3333329,3004.36363606,4574.03030257,3309.333333,4112.96969656,416.242424201,4361.27272684,4183.03030261,4196.424242,28.8484848456,4786.78787831,3214.54545422,4435.96969653,57.6969696912,42.0,42.0,?
2017-08-07 12:05:21.445183,4532.30302985,3713.21212084,4678.09090862,4100.6060602,3796.15151477,465.69696965,3864.15151477,679.999999932,4241.24242382,465.69696965,4413.30302986,148.363636349,4143.87878746,3387.6363633,4325.72727229,3004.36363606,4579.18181772,3309.333333,4125.33333292,416.242424201,4373.6363632,4183.03030261,4206.72727231,28.8484848456,4796.06060558,3214.54545422,4448.33333289,57.6969696912,42.0,42.0,?
2017-08-07 12:05:21.452529,4532.30302985,3713.21212084,4674.99999953,4100.6060602,3795.12121174,465.69696965,3868.27272689,679.999999932,4249.99999958,465.69696965,4410.21212077,148.363636349,4138.2121208,3387.6363633,4326.24242381,3004.36363606,4586.90909045,3309.333333,4129.45454504,416.242424201,4379.81818138,4183.03030261,4217.54545412,28.8484848456,4798.63636316,3214.54545422,4453.48484804,57.6969696912,42.0,42.0,?
2017-08-07 12:05:21.461252,4528.69696924,3713.21212084,4668.81818135,4100.6060602,3795.12121174,465.69696965,3868.27272689,679.999999932,4246.90909048,465.69696965,4401.96969653,148.363636349,4140.78787837,3387.6363633,4328.30302987,3004.36363606,4592.0606056,3309.333333,4124.81818141,416.242424201,4370.03030259,4183.03030261,4211.87878746,28.8484848456,4790.39393891,3214.54545422,4447.81818137,57.6969696912,42.0,42.0,?
2017-08-07 12:05:21.468763,4526.12121167,3713.21212084,4660.57575711,4100.6060602,3798.72727235,465.69696965,3867.75757537,679.999999932,4234.54545412,465.69696965,4397.33333289,148.363636349,4144.39393898,3387.6363633,4323.66666623,3004.36363606,4597.72727227,3309.333333,4118.63636322,416.242424201,4363.3333329,4183.03030261,4203.1212117,28.8484848456,4786.27272679,3214.54545422,4444.21212077,57.6969696912,42.0,42.0,?
2017-08-07 12:05:21.475097,4527.1515147,3713.21212084,4655.93939347,4100.6060602,3798.72727235,465.69696965,3867.75757537,679.999999932,4229.90909049,465.69696965,4395.27272683,148.363636349,4127.9090905,3387.6363633,4314.39393896,3004.36363606,4603.39393893,3309.333333,4118.12121171,416.242424201,4368.48484805,4183.03030261,4204.15151473,28.8484848456,4791.42424195,3214.54545422,4443.18181774,57.6969696912,42.0,42.0,?
2017-08-07 12:05:21.484466,4527.66666621,3713.21212084,4652.84848438,4100.6060602,3797.69696932,465.69696965,3866.21212083,679.999999932,4230.93939352,465.69696965,4392.69696926,148.363636349,4112.45454504,3387.6363633,4308.7272723,3004.36363606,4612.66666621,3309.333333,4125.33333292,416.242424201,4372.60606017,4183.03030261,4213.93939352,28.8484848456,4790.39393891,3214.54545422,4443.18181774,57.6969696912,42.0,42.0,?
2017-08-07 12:05:21.493099,4527.66666621,3713.21212084,4644.60606014,4100.6060602,3796.66666629,465.69696965,3865.69696931,679.999999932,4232.48484806,465.69696965,4398.36363592,148.363636349,4127.39393898,3387.6363633,4315.93939351,3004.36363606,4615.7575753,3309.333333,4133.57575716,416.242424201,4372.09090865,4183.03030261,4215.99999958,28.8484848456,4787.81818134,3214.54545422,4441.12121168,57.6969696912,42.0,42.0,?
2017-08-07 12:05:21.499700,4529.72727227,3713.21212084,4641.51515105,4100.6060602,3796.15151477,465.69696965,3869.81818143,679.999999932,4244.84848442,465.69696965,4408.66666623,148.363636349,4144.90909049,3387.6363633,4327.78787836,3004.36363606,4593.60606015,3309.333333,4128.93939353,416.242424201,4374.15151471,4183.03030261,4207.75757534,28.8484848456,4798.12121164,3214.54545422,4437.51515107,57.6969696912,42.0,42.0,?
2017-08-07 12:05:21.507777,4533.33333288,3713.21212084,4645.63636317,4100.6060602,3797.1818178,465.69696965,3870.84848446,679.999999932,4249.99999958,465.69696965,4414.33333289,148.363636349,4144.39393898,3387.6363633,4324.69696926,3004.36363606,4566.81818136,3309.333333,4116.57575716,416.242424201,4377.2424238,4183.03030261,4204.66666625,28.8484848456,4804.81818134,3214.54545422,4440.60606016,57.6969696912,42.0,42.0,?
2017-08-07 12:05:21.523467,4532.81818136,3713.21212084,4642.03030257,4100.6060602,3794.60606023,465.69696965,3867.75757537,679.999999932,4242.27272685,465.69696965,4416.90909047,148.363636349,4150.06060565,3387.6363633,4321.09090866,3004.36363606,4570.42424197,3309.333333,4115.54545413,416.242424201,4372.60606017,4183.03030261,4208.78787837,28.8484848456,4796.5757571,3214.54545422,4438.03030259,57.6969696912,42.0,42.0,?
2017-08-07 12:05:21.532258,4528.18181773,3713.21212084,4633.78787832,4100.6060602,3788.42424205,465.69696965,3863.12121173,679.999999932,4251.03030261,465.69696965,4416.90909047,148.363636349,4162.93939352,3387.6363633,4339.6363632,3004.36363606,4586.39393894,3309.333333,4123.27272686,416.242424201,4363.84848441,4183.03030261,4203.63636322,28.8484848456,4790.90909043,3214.54545422,4434.42424198,57.6969696912,42.0,42.0,?
2017-08-07 12:05:21.532586,4533.33333288,3713.21212084,4633.78787832,4100.6060602,3788.42424205,465.69696965,3863.12121173,679.999999932,4245.87878745,465.69696965,4411.2424238,148.363636349,4162.93939352,3387.6363633,4339.6363632,3004.36363606,4586.39393894,3309.333333,4123.27272686,416.242424201,4363.84848441,4183.03030261,4203.63636322,28.8484848456,4790.90909043,3214.54545422,4434.42424198,57.6969696912,42.0,42.0,?
2017-08-07 12:05:21.538619,4533.33333288,3713.21212084,4638.42424196,4100.6060602,3795.63636326,465.69696965,3868.27272689,679.999999932,4245.87878745,465.69696965,4411.75757532,148.363636349,4146.45454504,3387.6363633,4328.81818139,3004.36363606,4587.93939348,3309.333333,4120.69696928,416.242424201,4372.60606017,4183.03030261,4203.63636322,28.8484848456,4796.5757571,3214.54545422,4447.30302986,57.6969696912,42.0,42.0,?
2017-08-07 12:05:21.548951,4541.57575712,3713.21212084,4639.45454499,4100.6060602,3802.33333295,465.69696965,3878.06060567,679.999999932,4245.87878745,465.69696965,4413.30302986,148.363636349,4136.66666625,3387.6363633,4324.69696926,3004.36363606,4594.12121166,3309.333333,4124.30302989,416.242424201,4375.69696926,4183.03030261,4208.27272685,28.8484848456,4801.72727225,3214.54545422,4450.39393895,57.6969696912,42.0,42.0,?
2017-08-07 12:05:21.554842,4543.63636318,3713.21212084,4639.45454499,4100.6060602,3801.30302992,465.69696965,3881.66666628,679.999999932,4252.06060564,465.69696965,4404.54545411,148.363636349,4141.8181814,3387.6363633,4331.90909048,3004.36363606,4590.51515106,3309.333333,4129.96969656,416.242424201,4376.21212077,4183.03030261,4217.03030261,28.8484848456,4800.69696922,3214.54545422,4446.78787834,57.6969696912,42.0,42.0,?
2017-08-07 12:05:21.565775,4539.51515106,3713.21212084,4638.42424196,4100.6060602,3798.21212083,465.69696965,3879.0909087,679.999999932,4248.45454503,465.69696965,4404.03030259,148.363636349,4154.69696928,3387.6363633,4335.51515108,3004.36363606,4594.63636318,3309.333333,4129.45454504,416.242424201,4373.6363632,4183.03030261,4221.15151473,28.8484848456,4796.5757571,3214.54545422,4442.66666622,57.6969696912,42.0,42.0,?
2017-08-07 12:05:21.569728,4535.39393894,3713.21212084,4638.93939348,4100.6060602,3802.33333295,465.69696965,3876.51515113,679.999999932,4249.48484806,465.69696965,4422.06060562,148.363636349,4157.27272686,3387.6363633,4332.93939351,3004.36363606,4604.93939348,3309.333333,4127.39393898,416.242424201,4373.6363632,4183.03030261,4219.09090867,28.8484848456,4799.15151467,3214.54545422,4441.12121168,57.6969696912,42.0,42.0,?
2017-08-07 12:05:21.579059,4540.03030258,3713.21212084,4636.3636359,4100.6060602,3804.39393901,465.69696965,3875.4848481,679.999999932,4259.27272685,465.69696965,4435.96969653,148.363636349,4152.63636322,3387.6363633,4329.84848442,3004.36363606,4602.87878742,3309.333333,4131.5151511,416.242424201,4379.81818138,4183.03030261,4220.63636321,28.8484848456,4803.27272679,3214.54545422,4441.63636319,57.6969696912,42.0,42.0,?
2017-08-07 12:05:21.585471,4540.03030258,3713.21212084,4627.09090863,4100.6060602,3796.66666629,465.69696965,3875.99999961,679.999999932,4257.21212079,465.69696965,4434.9393935,148.363636349,4156.24242383,3387.6363633,4329.3333329,3004.36363606,4592.0606056,3309.333333,4130.99999959,416.242424201,4379.30302987,4183.03030261,4210.33333291,28.8484848456,4805.33333285,3214.54545422,4438.03030259,57.6969696912,42.0,42.0,?
2017-08-07 12:05:21.593672,4528.69696924,3713.21212084,4619.87878742,4100.6060602,3788.42424205,465.69696965,3870.84848446,679.999999932,4253.09090867,465.69696965,4432.87878744,148.363636349,4161.90909049,3387.6363633,4328.81818139,3004.36363606,4589.99999954,3309.333333,4121.2121208,416.242424201,4368.99999956,4183.03030261,4191.27272685,28.8484848456,4806.36363588,3214.54545422,4430.30302986,57.6969696912,42.0,42.0,?
2017-08-07 12:05:21.601649,4523.03030258,3713.21212084,4617.81818136,4100.6060602,3784.81818144,465.69696965,3861.06060567,679.999999932,4258.75757533,465.69696965,4432.36363592,148.363636349,4158.30302989,3387.6363633,4328.30302987,3004.36363606,4590.51515106,3309.333333,4119.66666625,416.242424201,4360.24242381,4183.03030261,4185.60606019,28.8484848456,4801.72727225,3214.54545422,4426.69696925,57.6969696912,42.0,42.0,?
2017-08-07 12:05:21.610646,4525.60606015,3713.21212084,4614.72727227,4100.6060602,3784.30302992,465.69696965,3861.06060567,679.999999932,4260.30302988,465.69696965,4426.69696925,148.363636349,4151.60606019,3387.6363633,4324.18181775,3004.36363606,4586.90909045,3309.333333,4124.30302989,416.242424201,4360.75757532,4183.03030261,4187.15151473,28.8484848456,4799.15151467,3214.54545422,4425.15151471,57.6969696912,42.0,42.0,?
2017-08-07 12:05:21.617160,4526.63636318,3713.21212084,4611.63636318,4100.6060602,3788.42424205,465.69696965,3867.24242386,679.999999932,4255.15151473,465.69696965,4420.51515107,148.363636349,4150.06060565,3387.6363633,4322.6363632,3004.36363606,4584.33333287,3309.333333,4121.72727232,416.242424201,4363.3333329,4183.03030261,4188.18181776,28.8484848456,4805.33333285,3214.54545422,4422.06060562,57.6969696912,42.0,42.0,?
2017-08-07 12:05:21.624111,4528.69696924,3713.21212084,4615.24242378,4100.6060602,3795.63636326,465.69696965,3866.72727234,679.999999932,4249.48484806,465.69696965,4418.45454501,148.363636349,4149.03030262,3387.6363633,4324.18181775,3004.36363606,4587.93939348,3309.333333,4126.36363595,416.242424201,4362.81818138,4183.03030261,4190.75757534,28.8484848456,4806.36363588,3214.54545422,4426.18181774,57.6969696912,42.0,42.0,?
2017-08-07 12:05:21.633877,4538.48484803,3713.21212084,4621.42424196,4100.6060602,3799.24242386,465.69696965,3867.75757537,679.999999932,4242.78787836,465.69696965,4416.90909047,148.363636349,4151.60606019,3387.6363633,4322.6363632,3004.36363606,4595.66666621,3309.333333,4138.2121208,416.242424201,4368.99999956,4183.03030261,4187.66666625,28.8484848456,4806.36363588,3214.54545422,4438.5454541,57.6969696912,42.0,42.0,?
2017-08-07 12:05:21.641121,4545.69696924,3713.21212084,4619.87878742,4100.6060602,3797.1818178,465.69696965,3872.39393901,679.999999932,4242.78787836,465.69696965,4413.81818138,148.363636349,4157.78787837,3387.6363633,4322.6363632,3004.36363606,4599.78787833,3309.333333,4137.69696928,416.242424201,4382.39393896,4183.03030261,4186.63636322,28.8484848456,4821.81818134,3214.54545422,4442.66666622,57.6969696912,42.0,42.0,?
2017-08-07 12:05:21.651547,4544.66666621,3713.21212084,4612.15151469,4100.6060602,3794.60606023,465.69696965,3870.84848446,679.999999932,4245.87878745,465.69696965,4413.81818138,148.363636349,4151.60606019,3387.6363633,4321.09090866,3004.36363606,4604.42424196,3309.333333,4129.96969656,416.242424201,4382.90909047,4183.03030261,4197.96969655,28.8484848456,4827.99999952,3214.54545422,4435.45454501,57.6969696912,42.0,42.0,?
2017-08-07 12:05:21.658956,4543.12121167,3713.21212084,4608.03030257,4100.6060602,3794.09090871,465.69696965,3866.72727234,679.999999932,4241.75757533,465.69696965,4416.90909047,148.363636349,4140.27272686,3387.6363633,4313.87878745,3004.36363606,4615.7575753,3309.333333,4128.93939353,416.242424201,4374.66666623,4183.03030261,4205.18181776,28.8484848456,4816.66666619,3214.54545422,4432.36363592,57.6969696912,42.0,42.0,?
2017-08-07 12:05:21.665240,4544.1515147,3713.21212084,4609.57575711,4100.6060602,3794.60606023,465.69696965,3864.66666628,679.999999932,4239.69696927,465.69696965,4418.96969653,148.363636349,4145.93939352,3387.6363633,4317.99999957,3004.36363606,4628.63636317,3309.333333,4135.63636322,416.242424201,4378.78787835,4183.03030261,4202.09090867,28.8484848456,4815.63636315,3214.54545422,4437.51515107,57.6969696912,42.0,42.0,?
2017-08-07 12:05:21.675375,4543.63636318,3713.21212084,4610.09090863,4100.6060602,3796.15151477,465.69696965,3863.63636325,679.999999932,4249.99999958,465.69696965,4421.03030259,148.363636349,4159.33333292,3387.6363633,4331.39393896,3004.36363606,4644.09090863,3309.333333,4141.8181814,416.242424201,4387.03030259,4183.03030261,4205.69696928,28.8484848456,4824.39393891,3214.54545422,4442.15151471,57.6969696912,42.0,42.0,?
2017-08-07 12:05:21.680688,4545.69696924,3713.21212084,4609.57575711,4100.6060602,3800.27272689,465.69696965,3870.84848446,679.999999932,4256.18181776,465.69696965,4422.06060562,148.363636349,4161.39393898,3387.6363633,4332.93939351,3004.36363606,4657.99999953,3309.333333,4138.72727231,416.242424201,4387.03030259,4183.03030261,4208.78787837,28.8484848456,4825.93939346,3214.54545422,4447.81818137,57.6969696912,42.0,42.0,?
2017-08-07 12:05:21.696987,4550.84848439,3713.21212084,4610.60606014,4100.6060602,3802.33333295,465.69696965,3878.57575719,679.999999932,4248.45454503,465.69696965,4418.96969653,148.363636349,4156.24242383,3387.6363633,4322.12121169,3004.36363606,4665.21212075,3309.333333,4132.03030262,416.242424201,4388.57575714,4183.03030261,4206.72727231,28.8484848456,4828.51515103,3214.54545422,4448.8484844,57.6969696912,42.0,42.0,?
2017-08-07 12:05:21.697936,4545.18181773,3713.21212084,4609.0606056,4100.6060602,3799.24242386,465.69696965,3876.51515113,679.999999932,4241.75757533,465.69696965,4409.69696926,148.363636349,4152.12121171,3387.6363633,4314.39393896,3004.36363606,4670.87878741,3309.333333,4130.99999959,416.242424201,4385.99999956,4183.03030261,4209.30302988,28.8484848456,4826.45454497,3214.54545422,4440.09090865,57.6969696912,42.0,42.0,?
2017-08-07 12:05:21.709814,4533.33333288,3713.21212084,4604.42424196,4100.6060602,3797.1818178,465.69696965,3871.87878749,679.999999932,4246.39393897,465.69696965,4410.72727229,148.363636349,4152.63636322,3387.6363633,4318.51515108,3004.36363606,4685.30302983,3309.333333,4126.36363595,416.242424201,4377.75757532,4183.03030261,4203.63636322,28.8484848456,4814.60606012,3214.54545422,4430.30302986,57.6969696912,42.0,42.0,?
2017-08-07 12:05:21.718241,4536.42424197,3721.45454508,4602.3636359,4100.6060602,3803.36363598,465.69696965,3876.51515113,679.999999932,4255.15151473,465.69696965,4427.72727228,148.363636349,4159.84848443,3387.6363633,4330.36363593,3004.36363606,4701.2727268,3309.333333,4119.15151474,416.242424201,4378.27272683,4183.03030261,4193.33333291,28.8484848456,4813.06060558,3214.54545422,4431.84848441,57.6969696912,42.0,42.0,?
2017-08-07 12:05:21.722145,4545.18181773,3721.45454508,4607.51515105,4096.48484808,3807.4848481,465.69696965,3881.15151476,679.999999932,4255.15151473,465.69696965,4431.33333289,148.363636349,4163.45454504,3387.6363633,4332.93939351,3004.36363606,4713.12121165,3309.333333,4123.27272686,416.242424201,4383.9393935,4183.03030261,4198.99999958,28.8484848456,4821.81818134,3214.54545422,4439.06060562,57.6969696912,42.0,42.0,?
2017-08-07 12:05:21.726724,4542.60606015,3721.45454508,4608.03030257,4096.48484808,3803.8787875,465.69696965,3875.4848481,679.999999932,4247.93939351,465.69696965,4416.39393895,148.363636349,4159.33333292,3387.6363633,4331.90909048,3004.36363606,4715.69696923,3309.333333,4121.72727232,416.242424201,4379.81818138,4183.03030261,4207.75757534,28.8484848456,4821.81818134,3214.54545422,4432.87878744,53.5757575704,42.0,42.0,?
2017-08-07 12:05:21.733991,4536.42424197,3721.45454508,4596.69696924,4096.48484808,3800.27272689,461.57575753,3866.72727234,679.999999932,4246.90909048,465.69696965,4413.81818138,148.363636349,4157.78787837,3387.6363633,4332.93939351,3004.36363606,4708.99999953,3309.333333,4107.30302989,416.242424201,4369.51515108,4183.03030261,4193.84848443,28.8484848456,4813.06060558,3214.54545422,4419.99999956,53.5757575704,42.0,42.0,?
2017-08-07 12:05:21.744249,4536.42424197,3721.45454508,4589.99999954,4096.48484808,3800.27272689,461.57575753,3868.7878784,679.999999932,4254.63636321,465.69696965,4424.63636319,148.363636349,4158.8181814,3387.6363633,4328.81818139,3004.36363606,4707.45454498,3309.333333,4098.54545414,416.242424201,4371.06060562,4183.03030261,4176.33333292,28.8484848456,4812.54545406,3214.54545422,4421.5454541,53.5757575704,42.0,42.0,?
2017-08-07 12:05:21.750239,4540.03030258,3721.45454508,4594.12121166,4096.48484808,3802.84848447,461.57575753,3878.57575719,679.999999932,4258.24242382,465.69696965,4420.51515107,148.363636349,4157.27272686,3387.6363633,4324.69696926,3004.36363606,4715.18181771,3309.333333,4110.39393898,416.242424201,4377.75757532,4183.03030261,4183.03030261,28.8484848456,4818.21212073,3214.54545422,4432.36363592,53.5757575704,42.0,42.0,?
2017-08-07 12:05:21.759204,4540.54545409,3721.45454508,4595.15151469,4096.48484808,3805.42424204,461.57575753,3880.63636325,679.999999932,4253.09090867,465.69696965,4406.60606017,156.60606059,4153.15151474,3387.6363633,4329.84848442,3004.36363606,4710.54545407,3309.333333,4120.18181777,416.242424201,4376.72727229,4183.03030261,4196.93939352,28.8484848456,4816.66666619,3214.54545422,4430.81818138,53.5757575704,42.0,42.0,?
2017-08-07 12:05:21.765245,4537.96969652,3721.45454508,4589.48484803,4096.48484808,3801.81818144,461.57575753,3875.99999961,679.999999932,4248.45454503,465.69696965,4406.09090865,156.60606059,4147.48484807,3383.51515118,4328.81818139,3004.36363606,4695.09090862,3309.333333,4095.45454505,416.242424201,4370.03030259,4183.03030261,4184.06060564,28.8484848456,4809.45454497,3214.54545422,4423.09090865,53.5757575704,42.0,42.0,?
2017-08-07 12:05:21.781284,4536.93939349,3721.45454508,4587.42424197,4096.48484808,3795.12121174,461.57575753,3870.33333295,679.999999932,4245.87878745,465.69696965,4412.78787835,156.60606059,4140.78787837,3383.51515118,4319.0303026,3024.96969667,4690.45454499,3309.333333,4080.51515111,416.242424201,4365.90909047,4183.03030261,4164.48484807,28.8484848456,4807.90909043,3214.54545422,4424.12121168,53.5757575704,42.0,42.0,?
2017-08-07 12:05:21.783453,4544.66666621,3721.45454508,4589.48484803,4096.48484808,3804.90909053,461.57575753,3868.27272689,679.999999932,4246.39393897,465.69696965,4414.33333289,156.60606059,4137.69696928,3383.51515118,4317.99999957,3024.96969667,4703.33333286,3169.2121209,4117.09090868,416.242424201,4374.66666623,4183.03030261,4183.54545413,28.8484848456,4817.69696922,3214.54545422,4434.42424198,53.5757575704,42.0,42.0,?
2017-08-07 12:05:21.790465,4552.39393894,3721.45454508,4592.57575712,4096.48484808,3818.30302992,461.57575753,3876.51515113,679.999999932,4253.60606018,465.69696965,4412.78787835,156.60606059,4143.87878746,3383.51515118,4328.81818139,3024.96969667,4720.84848438,3169.2121209,4147.48484807,420.363636322,4391.15151471,4183.03030261,4213.93939352,28.8484848456,4826.45454497,3214.54545422,4441.63636319,53.5757575704,42.0,42.0,?
2017-08-07 12:05:21.796893,4546.21212076,3721.45454508,4591.54545409,4096.48484808,3813.66666629,461.57575753,3880.12121173,679.999999932,4254.63636321,465.69696965,4417.42424198,156.60606059,4152.63636322,3383.51515118,4334.48484805,3024.96969667,4653.3636359,3169.2121209,4126.36363595,420.363636322,4390.12121168,4183.03030261,4201.57575716,28.8484848456,4825.93939346,3214.54545422,4438.5454541,53.5757575704,42.0,42.0,?
2017-08-07 12:05:21.805990,4544.66666621,3721.45454508,4587.93939348,4096.48484808,3809.03030265,461.57575753,3875.4848481,679.999999932,4250.51515109,465.69696965,4422.06060562,156.60606059,4158.8181814,3383.51515118,4335.51515108,3024.96969667,4489.5454541,3169.2121209,4111.42424201,420.363636322,4381.36363593,4183.03030261,4186.63636322,16.4848484832,4822.84848437,3214.54545422,4435.45454501,53.5757575704,42.0,42.0,?
2017-08-07 12:05:21.813040,4553.93939348,3721.45454508,4591.54545409,4096.48484808,3818.81818144,461.57575753,3876.51515113,679.999999932,4253.09090867,465.69696965,4414.84848441,156.60606059,4152.63636322,3383.51515118,4333.96969654,3024.96969667,4390.6363632,3169.2121209,4132.54545413,420.363636322,4389.60606017,4183.03030261,4207.75757534,16.4848484832,4824.90909043,3222.78787847,4439.57575713,53.5757575704,42.0,42.0,?
2017-08-07 12:05:21.819647,4551.36363591,3721.45454508,4589.48484803,4096.48484808,3820.8787875,461.57575753,3881.66666628,679.999999932,4252.06060564,465.69696965,4407.12121168,156.60606059,4143.87878746,3383.51515118,4328.30302987,3024.96969667,4407.12121168,3169.2121209,4134.09090868,424.484848442,4394.75757532,4183.03030261,4216.51515109,16.4848484832,4825.42424194,3222.78787847,4436.99999956,53.5757575704,42.0,42.0,?
2017-08-07 12:05:21.827563,4541.57575712,3721.45454508,4578.15151469,4096.48484808,3809.54545416,461.57575753,3878.57575719,679.999999932,4247.424242,465.69696965,4411.2424238,156.60606059,4150.57575716,3383.51515118,4330.36363593,3024.96969667,4422.06060562,3169.2121209,4113.48484807,424.484848442,4382.39393896,4183.03030261,4200.03030261,16.4848484832,4819.24242376,3222.78787847,4428.2424238,53.5757575704,42.0,42.0,?
2017-08-07 12:05:21.835322,4543.63636318,3721.45454508,4574.54545409,4096.48484808,3809.54545416,461.57575753,3867.75757537,679.999999932,4249.99999958,465.69696965,4418.96969653,156.60606059,4160.87878746,3383.51515118,4337.06060563,3024.96969667,4414.33333289,3169.2121209,4113.99999959,424.484848442,4379.30302987,4183.03030261,4198.48484806,16.4848484832,4819.75757528,3222.78787847,4429.27272683,53.5757575704,42.0,42.0,?
2017-08-07 12:05:21.844562,4548.78787833,3721.45454508,4575.57575712,4096.48484808,3815.21212083,461.57575753,3863.12121173,679.999999932,4251.03030261,465.69696965,4415.36363592,156.60606059,4150.06060565,3383.51515118,4329.84848442,3024.96969667,4427.72727228,3169.2121209,4125.33333292,424.484848442,4387.54545411,4183.03030261,4202.60606019,16.4848484832,4820.78787831,3222.78787847,4433.90909047,53.5757575704,42.0,42.0,?
2017-08-07 12:05:21.859507,4545.69696924,3721.45454508,4575.57575712,4096.48484808,3810.06060568,461.57575753,3866.21212083,679.999999932,4245.87878745,465.69696965,4407.6363632,156.60606059,4138.72727231,3383.51515118,4322.12121169,3024.96969667,4436.99999956,3169.2121209,4124.30302989,424.484848442,4384.96969653,4183.03030261,4200.54545413,16.4848484832,4810.99999952,3222.78787847,4433.39393895,53.5757575704,42.0,42.0,?
2017-08-07 12:05:21.859920,4532.81818136,3721.45454508,4563.21212076,4096.48484808,3797.1818178,461.57575753,3862.60606022,679.999999932,4254.63636321,465.69696965,4426.18181774,156.60606059,4160.87878746,3383.51515118,4331.90909048,3024.96969667,4434.9393935,3169.2121209,4107.30302989,424.484848442,4368.48484805,4183.03030261,4196.93939352,16.4848484832,4805.33333285,3222.78787847,4415.87878744,53.5757575704,42.0,42.0,?
2017-08-07 12:05:21.871466,4532.81818136,3721.45454508,4563.21212076,4096.48484808,3797.1818178,461.57575753,3862.60606022,679.999999932,4254.63636321,465.69696965,4426.18181774,156.60606059,4160.87878746,3383.51515118,4331.90909048,3024.96969667,4434.9393935,3169.2121209,4107.30302989,424.484848442,4368.48484805,4183.03030261,4196.93939352,16.4848484832,4805.33333285,3222.78787847,4415.87878744,53.5757575704,42.0,42.0,?
2017-08-07 12:05:21.888695,4548.78787833,3721.45454508,4578.15151469,4096.48484808,3799.75757538,461.57575753,3865.1818178,679.999999932,4251.54545412,465.69696965,4425.66666622,156.60606059,4146.96969656,3383.51515118,4317.48484805,3024.96969667,4429.78787834,3169.2121209,4096.48484808,424.484848442,4372.09090865,4183.03030261,4186.1212117,16.4848484832,4805.84848437,3222.78787847,4419.99999956,53.5757575704,42.0,42.0,?
2017-08-07 12:05:21.889078,4548.78787833,3721.45454508,4578.15151469,4096.48484808,3809.03030265,461.57575753,3873.93939355,679.999999932,4251.54545412,465.69696965,4412.78787835,156.60606059,4136.66666625,3383.51515118,4313.87878745,3024.96969667,4435.45454501,3169.2121209,4103.69696929,424.484848442,4378.27272683,4183.03030261,4186.1212117,16.4848484832,4807.39393891,3222.78787847,4436.48484804,53.5757575704,42.0,42.0,?
2017-08-07 12:05:21.893729,4543.12121167,3721.45454508,4576.60606015,4096.48484808,3811.09090871,461.57575753,3872.90909052,679.999999932,4251.03030261,465.69696965,4408.15151471,156.60606059,4145.42424201,3383.51515118,4327.27272684,3024.96969667,4452.96969652,3169.2121209,4120.69696928,424.484848442,4376.72727229,4183.03030261,4193.33333291,16.4848484832,4806.8787874,3222.78787847,4433.39393895,53.5757575704,42.0,42.0,?
2017-08-07 12:05:21.898708,4535.90909046,3721.45454508,4563.21212076,4096.48484808,3803.8787875,461.57575753,3864.15151477,679.999999932,4252.06060564,465.69696965,4412.78787835,156.60606059,4151.60606019,3383.51515118,4336.0303026,3024.96969667,4463.78787834,3169.2121209,4121.72727232,424.484848442,4368.99999956,4183.03030261,4201.57575716,16.4848484832,4803.78787831,3222.78787847,4414.84848441,53.5757575704,42.0,42.0,?
2017-08-07 12:05:21.907326,4542.09090864,3721.45454508,4568.87878742,4096.48484808,3805.42424204,461.57575753,3861.06060567,679.999999932,4247.93939351,465.69696965,4413.30302986,156.60606059,4144.39393898,3383.51515118,4327.27272684,3024.96969667,4468.93939349,3169.2121209,4116.06060565,424.484848442,4375.18181774,4183.03030261,4204.66666625,16.4848484832,4808.42424194,3222.78787847,4420.51515107,53.5757575704,42.0,42.0,?
2017-08-07 12:05:21.913168,4546.21212076,3721.45454508,4573.51515106,4096.48484808,3811.60606022,461.57575753,3866.21212083,679.999999932,4238.15151473,465.69696965,4404.54545411,156.60606059,4135.63636322,3383.51515118,4309.24242381,3024.96969667,4472.03030258,3169.2121209,4121.2121208,424.484848442,4384.96969653,4183.03030261,4195.39393897,16.4848484832,4813.06060558,3222.78787847,4435.96969653,53.5757575704,42.0,42.0,?
2017-08-07 12:05:21.923171,4533.33333288,3721.45454508,4560.63636318,4096.48484808,3805.93939356,461.57575753,3863.12121173,679.999999932,4231.45454503,465.69696965,4397.33333289,156.60606059,4130.99999959,3383.51515118,4302.54545412,3024.96969667,4473.57575713,3169.2121209,4122.24242383,424.484848442,4374.15151471,4183.03030261,4187.66666625,16.4848484832,4803.78787831,3222.78787847,4425.66666622,53.5757575704,42.0,42.0,?
2017-08-07 12:05:21.929122,4523.54545409,3721.45454508,4553.42424197,4096.48484808,3798.21212083,461.57575753,3852.30302992,679.999999932,4230.93939352,465.69696965,4397.84848441,156.60606059,4134.60606019,3383.51515118,4312.84848442,3024.96969667,4476.1515147,3169.2121209,4110.39393898,424.484848442,4364.36363593,4183.03030261,4187.15151473,16.4848484832,4801.21212073,3222.78787847,4405.06060562,53.5757575704,42.0,42.0,?
2017-08-07 12:05:21.937867,4535.39393894,3721.45454508,4560.12121167,4096.48484808,3804.90909053,461.57575753,3853.33333295,679.999999932,4238.15151473,465.69696965,4405.06060562,156.60606059,4141.30302989,3383.51515118,4319.0303026,3024.96969667,4477.18181773,3169.2121209,4111.42424201,424.484848442,4377.2424238,4183.03030261,4187.15151473,16.4848484832,4813.57575709,3222.78787847,4411.2424238,53.5757575704,42.0,42.0,?
2017-08-07 12:05:21.949816,4549.30302985,3721.45454508,4560.12121167,4096.48484808,3815.72727235,461.57575753,3862.60606022,679.999999932,4250.51515109,465.69696965,4416.39393895,156.60606059,4140.78787837,3383.51515118,4313.87878745,3024.96969667,4467.39393895,3169.2121209,4123.27272686,424.484848442,4387.54545411,4183.03030261,4191.27272685,16.4848484832,4817.69696922,3222.78787847,4431.84848441,53.5757575704,42.0,42.0,?
2017-08-07 12:05:21.957814,4543.12121167,3721.45454508,4548.78787833,4096.48484808,3812.12121174,461.57575753,3865.69696931,679.999999932,4256.18181776,465.69696965,4418.96969653,156.60606059,4136.66666625,3383.51515118,4312.3333329,3024.96969667,4458.63636319,3169.2121209,4120.69696928,424.484848442,4376.72727229,4183.03030261,4190.75757534,16.4848484832,4805.84848437,3222.78787847,4425.15151471,53.5757575704,42.0,42.0,?
2017-08-07 12:05:21.962922,4531.27272682,3721.45454508,4544.1515147,4096.48484808,3802.84848447,461.57575753,3862.0909087,679.999999932,4247.424242,465.69696965,4410.21212077,156.60606059,4138.72727231,3383.51515118,4317.99999957,3024.96969667,4462.75757531,3169.2121209,4113.48484807,424.484848442,4365.39393896,4183.03030261,4180.45454504,16.4848484832,4798.63636316,3222.78787847,4408.66666623,53.5757575704,42.0,42.0,?
2017-08-07 12:05:21.968573,4530.24242379,3721.45454508,4541.06060561,4096.48484808,3802.33333295,461.57575753,3861.06060567,679.999999932,4237.63636321,465.69696965,4402.99999956,156.60606059,4141.8181814,3383.51515118,4319.54545411,3024.96969667,4470.99999955,3169.2121209,4115.03030262,424.484848442,4367.96969653,4183.03030261,4177.87878746,16.4848484832,4801.21212073,3222.78787847,4417.42424198,53.5757575704,42.0,42.0,?
2017-08-07 12:05:21.976054,4535.90909046,3721.45454508,4533.33333288,4096.48484808,3807.99999962,461.57575753,3858.99999961,679.999999932,4235.57575715,465.69696965,4401.96969653,156.60606059,4139.75757534,3383.51515118,4315.93939351,3024.96969667,4476.1515147,3169.2121209,4117.60606019,424.484848442,4378.27272683,4183.03030261,4186.63636322,16.4848484832,4808.93939346,3222.78787847,4430.81818138,53.5757575704,42.0,42.0,?
2017-08-07 12:05:21.984786,4540.03030258,3721.45454508,4527.1515147,4096.48484808,3810.57575719,461.57575753,3851.7878784,679.999999932,4234.54545412,465.69696965,4399.90909047,156.60606059,4138.2121208,3383.51515118,4312.84848442,3024.96969667,4481.81818137,3169.2121209,4122.24242383,424.484848442,4381.36363593,4183.03030261,4188.18181776,16.4848484832,4813.57575709,3222.78787847,4427.72727228,53.5757575704,42.0,42.0,?
2017-08-07 12:05:21.999719,4538.48484803,3721.45454508,4528.18181773,4096.48484808,3809.54545416,461.57575753,3849.21212083,679.999999932,4235.06060564,465.69696965,4399.39393895,156.60606059,4138.72727231,3383.51515118,4313.87878745,3024.96969667,4490.06060561,3169.2121209,4125.33333292,424.484848442,4375.18181774,4183.03030261,4182.5151511,16.4848484832,4808.93939346,3222.78787847,4420.51515107,53.5757575704,42.0,42.0,?
2017-08-07 12:05:22.000043,4538.48484803,3721.45454508,4527.1515147,4096.48484808,3805.42424204,461.57575753,3849.72727234,679.999999932,4235.06060564,465.69696965,4404.03030259,156.60606059,4138.2121208,3383.51515118,4314.39393896,3024.96969667,4499.8484844,3169.2121209,4121.2121208,424.484848442,4377.75757532,4183.03030261,4184.57575716,16.4848484832,4806.8787874,3222.78787847,4422.06060562,53.5757575704,42.0,42.0,?
2017-08-07 12:05:22.011519,4543.12121167,3721.45454508,4517.87878743,4096.48484808,3801.81818144,461.57575753,3848.69696931,679.999999932,4236.09090867,465.69696965,4407.12121168,156.60606059,4137.18181777,3383.51515118,4314.39393896,3024.96969667,4506.54545409,3169.2121209,4125.84848444,424.484848442,4388.06060562,4183.03030261,4195.90909049,16.4848484832,4818.21212073,3222.78787847,4428.2424238,53.5757575704,42.0,42.0,?
2017-08-07 12:05:22.016417,4544.66666621,3721.45454508,4509.12121167,4096.48484808,3801.81818144,461.57575753,3853.84848446,679.999999932,4244.33333291,465.69696965,4414.33333289,156.60606059,4136.15151474,3383.51515118,4316.45454502,3024.96969667,4509.63636319,3169.2121209,4134.60606019,424.484848442,4391.15151471,4183.03030261,4203.1212117,16.4848484832,4824.90909043,3222.78787847,4431.33333289,53.5757575704,42.0,42.0,?
2017-08-07 12:05:22.027945,4542.60606015,3721.45454508,4508.09090864,4096.48484808,3802.33333295,461.57575753,3858.99999961,679.999999932,4253.60606018,465.69696965,4422.06060562,156.60606059,4138.2121208,3383.51515118,4320.06060563,3024.96969667,4515.30302985,3169.2121209,4130.99999959,424.484848442,4389.09090865,4183.03030261,4205.69696928,16.4848484832,4823.8787874,3222.78787847,4426.18181774,53.5757575704,42.0,42.0,?
2017-08-07 12:05:22.031528,4541.57575712,3721.45454508,4507.06060561,4096.48484808,3805.42424204,461.57575753,3854.36363598,679.999999932,4248.96969654,465.69696965,4415.87878744,156.60606059,4150.57575716,3383.51515118,4326.24242381,3024.96969667,4521.99999955,3169.2121209,4125.84848444,424.484848442,4388.57575714,4183.03030261,4197.45454503,16.4848484832,4823.36363588,3222.78787847,4422.57575713,53.5757575704,42.0,42.0,?
2017-08-07 12:05:22.040292,4540.54545409,3721.45454508,4498.81818137,4096.48484808,3804.39393901,461.57575753,3854.36363598,679.999999932,4236.09090867,465.69696965,4403.51515107,156.60606059,4160.87878746,3383.51515118,4330.87878745,3024.96969667,4525.09090864,3169.2121209,4127.39393898,424.484848442,4389.60606017,4183.03030261,4192.8181814,16.4848484832,4822.33333285,3222.78787847,4427.21212077,53.5757575704,42.0,42.0,?
2017-08-07 12:05:22.046039,4539.51515106,3721.45454508,4495.72727228,4096.48484808,3802.33333295,461.57575753,3860.54545416,679.999999932,4233.51515109,465.69696965,4400.42424198,156.60606059,4150.57575716,3383.51515118,4326.24242381,3024.96969667,4527.1515147,3169.2121209,4129.96969656,424.484848442,4389.09090865,4183.03030261,4197.45454503,16.4848484832,4819.24242376,3222.78787847,4430.81818138,53.5757575704,42.0,42.0,?
2017-08-07 12:05:22.054083,4537.96969652,3721.45454508,4497.78787834,4096.48484808,3802.84848447,461.57575753,3862.0909087,679.999999932,4243.81818139,465.69696965,4407.12121168,156.60606059,4141.30302989,3383.51515118,4319.0303026,3024.96969667,4535.39393894,3169.2121209,4123.78787838,424.484848442,4384.45454502,4183.03030261,4191.27272685,16.4848484832,4818.72727225,3222.78787847,4429.27272683,53.5757575704,42.0,42.0,?
2017-08-07 12:05:22.062790,4535.39393894,3721.45454508,4496.24242379,4096.48484808,3801.81818144,461.57575753,3860.54545416,679.999999932,4252.57575715,465.69696965,4413.81818138,156.60606059,4151.09090868,3383.51515118,4324.18181775,3024.96969667,4542.09090864,3169.2121209,4112.96969656,424.484848442,4379.81818138,4183.03030261,4188.69696928,16.4848484832,4819.75757528,3222.78787847,4429.27272683,53.5757575704,42.0,42.0,?
2017-08-07 12:05:22.070626,4534.87878743,3721.45454508,4495.21212076,4096.48484808,3800.27272689,461.57575753,3857.96969658,679.999999932,4254.63636321,465.69696965,4417.9393935,156.60606059,4158.30302989,3383.51515118,4330.87878745,3024.96969667,4548.27272682,3169.2121209,4110.39393898,424.484848442,4382.90909047,4183.03030261,4198.48484806,16.4848484832,4818.21212073,3222.78787847,4431.84848441,53.5757575704,42.0,42.0,?
2017-08-07 12:05:22.078745,4532.30302985,3721.45454508,4494.69696925,4096.48484808,3796.66666629,461.57575753,3850.75757537,679.999999932,4254.1212117,465.69696965,4422.57575713,156.60606059,4155.72727231,3383.51515118,4328.81818139,3024.96969667,4557.54545409,3169.2121209,4111.93939353,424.484848442,4383.9393935,4183.03030261,4192.30302988,16.4848484832,4814.60606012,3222.78787847,4430.81818138,53.5757575704,42.0,42.0,?
2017-08-07 12:05:22.085370,4528.69696924,3721.45454508,4490.57575713,4096.48484808,3793.5757572,461.57575753,3847.66666628,679.999999932,4254.1212117,465.69696965,4425.66666622,156.60606059,4156.24242383,3383.51515118,4324.69696926,3024.96969667,4561.1515147,3169.2121209,4107.81818141,424.484848442,4376.72727229,4183.03030261,4174.27272686,16.4848484832,4808.93939346,3222.78787847,4431.33333289,53.5757575704,42.0,42.0,?
2017-08-07 12:05:22.096905,4532.81818136,3721.45454508,4492.63636319,4096.48484808,3797.1818178,461.57575753,3849.72727234,679.999999932,4254.63636321,465.69696965,4425.66666622,156.60606059,4160.36363595,3383.51515118,4326.75757532,3024.96969667,4558.57575712,3169.2121209,4108.33333292,424.484848442,4376.21212077,4183.03030261,4181.99999958,16.4848484832,4806.36363588,3222.78787847,4444.21212077,53.5757575704,42.0,42.0,?
2017-08-07 12:05:22.114233,4546.72727227,3721.45454508,4494.69696925,4096.48484808,3803.8787875,461.57575753,3849.21212083,679.999999932,4248.45454503,465.69696965,4423.60606016,156.60606059,4154.18181777,3383.51515118,4318.51515108,3024.96969667,4570.93939348,3169.2121209,4126.36363595,424.484848442,4410.72727229,4183.03030261,4203.63636322,16.4848484832,4837.27272679,3222.78787847,4476.66666622,53.5757575704,42.0,42.0,?
2017-08-07 12:05:22.115279,4546.72727227,3721.45454508,4494.69696925,4096.48484808,3803.8787875,461.57575753,3849.21212083,679.999999932,4248.45454503,465.69696965,4423.60606016,156.60606059,4154.18181777,3383.51515118,4318.51515108,3024.96969667,4570.93939348,3169.2121209,4126.36363595,424.484848442,4410.72727229,4183.03030261,4203.63636322,16.4848484832,4837.27272679,3222.78787847,4476.66666622,53.5757575704,42.0,42.0,?
2017-08-07 12:05:22.118316,4546.72727227,3721.45454508,4494.69696925,4096.48484808,3803.8787875,461.57575753,3849.21212083,679.999999932,4248.45454503,465.69696965,4423.60606016,156.60606059,4154.18181777,3383.51515118,4318.51515108,3024.96969667,4570.93939348,3169.2121209,4126.36363595,424.484848442,4410.72727229,4183.03030261,4203.63636322,16.4848484832,4837.27272679,3222.78787847,4476.66666622,53.5757575704,42.0,42.0,?
2017-08-07 12:05:22.124836,4537.96969652,3721.45454508,4492.63636319,4096.48484808,3797.1818178,461.57575753,3848.69696931,679.999999932,4243.81818139,465.69696965,4419.48484804,156.60606059,4157.78787837,3383.51515118,4326.75757532,3024.96969667,4574.54545409,3169.2121209,4125.84848444,424.484848442,4390.12121168,4183.03030261,4188.18181776,16.4848484832,4819.24242376,3222.78787847,4459.66666622,53.5757575704,42.0,42.0,?
2017-08-07 12:05:22.132440,4537.96969652,3721.45454508,4492.63636319,4096.48484808,3797.1818178,461.57575753,3848.69696931,679.999999932,4243.81818139,465.69696965,4419.48484804,156.60606059,4157.78787837,3383.51515118,4326.75757532,3024.96969667,4574.54545409,3169.2121209,4125.84848444,424.484848442,4390.12121168,4183.03030261,4188.18181776,16.4848484832,4819.24242376,3222.78787847,4459.66666622,53.5757575704,42.0,42.0,?
2017-08-07 12:05:22.142230,4543.12121167,3721.45454508,4494.18181773,4096.48484808,3801.30302992,461.57575753,3848.1818178,679.999999932,4249.48484806,465.69696965,4418.96969653,156.60606059,4154.69696928,3383.51515118,4326.75757532,3024.96969667,4581.24242378,3169.2121209,4128.42424201,424.484848442,4399.90909047,4183.03030261,4187.66666625,16.4848484832,4824.39393891,3222.78787847,4467.39393895,53.5757575704,42.0,42.0,?
2017-08-07 12:05:22.148665,4547.24242379,3721.45454508,4495.21212076,4096.48484808,3805.93939356,461.57575753,3847.66666628,679.999999932,4247.93939351,465.69696965,4423.09090865,156.60606059,4153.15151474,3383.51515118,4325.72727229,3024.96969667,4589.99999954,3169.2121209,4127.9090905,424.484848442,4402.99999956,4183.03030261,4190.24242382,16.4848484832,4828.51515103,3222.78787847,4471.51515107,53.5757575704,42.0,42.0,?
2017-08-07 12:05:22.156454,4540.54545409,3721.45454508,4494.69696925,4096.48484808,3805.42424204,461.57575753,3849.72727234,679.999999932,4241.24242382,465.69696965,4423.60606016,156.60606059,4156.24242383,3383.51515118,4327.27272684,3024.96969667,4593.09090863,3169.2121209,4126.36363595,424.484848442,4396.30302986,4183.03030261,4184.06060564,16.4848484832,4823.8787874,3222.78787847,4460.18181774,53.5757575704,42.0,42.0,?
2017-08-07 12:05:22.164031,4531.78787833,3721.45454508,4493.1515147,4096.48484808,3799.75757538,461.57575753,3849.72727234,679.999999932,4246.90909048,465.69696965,4419.99999956,156.60606059,4158.8181814,3383.51515118,4330.87878745,3024.96969667,4602.87878742,3169.2121209,4122.24242383,424.484848442,4391.66666623,4183.03030261,4172.72727231,16.4848484832,4819.24242376,3222.78787847,4456.06060561,53.5757575704,42.0,42.0,?
2017-08-07 12:05:22.173340,4530.24242379,3721.45454508,4487.48484804,4096.48484808,3796.15151477,461.57575753,3848.1818178,679.999999932,4254.1212117,465.69696965,4421.5454541,156.60606059,4157.27272686,3383.51515118,4329.3333329,3024.96969667,4618.84848439,3169.2121209,4117.60606019,424.484848442,4390.6363632,4183.03030261,4180.45454504,16.4848484832,4819.24242376,3222.78787847,4458.63636319,53.5757575704,42.0,42.0,?
2017-08-07 12:05:22.179008,4528.18181773,3721.45454508,4480.78787834,4096.48484808,3797.1818178,461.57575753,3847.15151477,679.999999932,4251.54545412,465.69696965,4423.60606016,156.60606059,4154.18181777,3383.51515118,4321.09090866,3024.96969667,4633.78787832,3169.2121209,4117.09090868,424.484848442,4383.9393935,4183.03030261,4190.24242382,16.4848484832,4812.03030255,3222.78787847,4450.90909046,53.5757575704,42.0,42.0,?
2017-08-07 12:05:22.186938,4529.72727227,3721.45454508,4484.39393895,4096.48484808,3801.30302992,461.57575753,3844.57575719,679.999999932,4250.51515109,465.69696965,4425.66666622,156.60606059,4159.84848443,3383.51515118,4324.69696926,3024.96969667,4649.75757529,3169.2121209,4127.9090905,424.484848442,4380.3333329,4183.03030261,4185.09090867,16.4848484832,4807.90909043,3222.78787847,4448.8484844,53.5757575704,42.0,42.0,?
2017-08-07 12:05:22.195753,4539.51515106,3721.45454508,4494.69696925,4096.48484808,3802.33333295,461.57575753,3846.12121174,679.999999932,4253.60606018,465.69696965,4432.87878744,156.60606059,4171.69696928,3383.51515118,4339.12121169,3024.96969667,4663.6666662,3169.2121209,4143.36363595,424.484848442,4390.12121168,4183.03030261,4187.66666625,16.4848484832,4819.24242376,3222.78787847,4462.2424238,53.5757575704,42.0,42.0,?
2017-08-07 12:05:22.203468,4542.60606015,3721.45454508,4496.75757531,4096.48484808,3804.39393901,461.57575753,3854.36363598,679.999999932,4252.57575715,465.69696965,4430.30302986,156.60606059,4175.30302989,3383.51515118,4336.54545411,3024.96969667,4672.93939347,3169.2121209,4138.2121208,424.484848442,4400.9393935,4183.03030261,4193.33333291,16.4848484832,4829.03030255,3222.78787847,4468.93939349,53.5757575704,42.0,42.0,?
2017-08-07 12:05:22.210037,4536.42424197,3709.09090872,4490.57575713,4096.48484808,3807.4848481,461.57575753,3854.87878749,679.999999932,4248.45454503,465.69696965,4415.87878744,156.60606059,4164.48484807,3383.51515118,4327.78787836,3024.96969667,4684.78787832,3169.2121209,4124.81818141,424.484848442,4395.27272683,4183.03030261,4186.1212117,16.4848484832,4820.27272679,3222.78787847,4460.69696925,53.5757575704,42.0,42.0,?
