Timestamp,F3 Value,F3 Quality,FC5 Value,FC5 Quality,F7 Value,F7 Quality,T7 Value,T7 Quality,P7 Value,P7 Quality,O1 Value,O1 Quality,O2 Value,O2 Quality,P8 Value,P8 Quality,T8 Value,T8 Quality,F8 Value,F8 Quality,AF4 Value,AF4 Quality,FC6 Value,FC6 Quality,F4 Value,F4 Quality,AF3 Value,AF3 Quality,X Value,Y Value,Z Value
2017-08-07 13:37:03.696169,4628.12121166,0,4251.54545412,0,3966.66666627,0,3940.90909052,0,4374.15151471,0,4534.36363591,107.151515141,4290.69696927,0,4428.75757531,0,5074.24242374,0,4209.8181814,0,4475.63636319,0,4352.51515108,0,4916.60606011,0,4565.78787833,0,42.0,42.0,?
2017-08-07 13:37:03.696276,4633.27272681,0,4255.15151473,0,3969.24242385,0,3948.12121173,0,4378.27272683,0,4537.454545,107.151515141,4283.99999957,3692.60606024,4433.39393895,0,5074.75757525,0,4209.30302988,0,4475.12121167,0,4348.90909047,0,4920.72727224,0,4573.51515106,0,42.0,42.0,?
2017-08-07 13:37:03.697130,4633.27272681,0,4255.15151473,0,3969.24242385,0,3948.12121173,0,4378.27272683,0,4537.454545,107.151515141,4283.99999957,3692.60606024,4433.39393895,0,5074.75757525,0,4209.30302988,0,4475.12121167,0,4348.90909047,0,4920.72727224,0,4573.51515106,0,42.0,42.0,?
2017-08-07 13:37:03.697198,4628.12121166,0,4262.87878745,0,3966.15151475,0,3948.63636324,0,4385.99999956,0,4542.60606015,107.151515141,4306.15151472,3692.60606024,4439.57575713,3140.36363605,5086.09090858,3247.51515119,4208.78787837,519.272727221,4471.51515107,0,4353.54545411,0,4920.21212072,0,4571.96969651,0,42.0,42.0,?
2017-08-07 13:37:03.697856,4628.12121166,0,4262.87878745,0,3966.15151475,0,3948.63636324,0,4385.99999956,0,4542.60606015,107.151515141,4306.15151472,3692.60606024,4439.57575713,3140.36363605,5086.09090858,3247.51515119,4208.78787837,519.272727221,4471.51515107,0,4348.39393896,0,4920.21212072,0,4571.96969651,0,42.0,42.0,?
2017-08-07 13:37:03.697896,4628.12121166,0,4262.87878745,0,3966.15151475,0,3948.63636324,0,4385.99999956,0,4542.60606015,107.151515141,4306.15151472,3692.60606024,4439.57575713,3140.36363605,5086.09090858,3247.51515119,4208.78787837,519.272727221,4471.51515107,0,4348.39393896,0,4920.21212072,0,4571.96969651,0,42.0,42.0,?
2017-08-07 13:37:03.697933,4620.39393893,0,4251.54545412,0,3968.72727233,0,3952.75757536,0,4385.99999956,0,4544.66666621,107.151515141,4300.99999957,3692.60606024,4433.39393895,3140.36363605,5080.42424192,3247.51515119,4197.96969655,519.272727221,4458.63636319,3535.99999965,4339.12121169,0,4899.60606012,0,4577.12121166,0,42.0,42.0,?
2017-08-07 13:37:03.700361,4620.39393893,0,4251.54545412,0,3968.72727233,0,3952.75757536,0,4385.99999956,0,4538.99999955,107.151515141,4287.09090866,3692.60606024,4433.39393895,3140.36363605,5080.42424192,3247.51515119,4197.96969655,519.272727221,4458.63636319,3535.99999965,4339.12121169,4199.5151511,4899.60606012,0,4563.72727227,0,42.0,42.0,?
2017-08-07 13:37:03.705171,4617.81818136,0,4253.09090867,0,3957.393939,0,3950.6969693,0,4385.99999956,0,4542.60606015,107.151515141,4291.7272723,3692.60606024,4437.51515107,3140.36363605,5069.6060601,3247.51515119,4186.1212117,519.272727221,4449.87878743,3535.99999965,4330.36363593,4199.5151511,4892.90909042,3733.81818144,4544.1515147,0,42.0,42.0,?
2017-08-07 13:37:03.708064,4617.81818136,0,4253.09090867,0,3950.18181779,0,3950.6969693,0,4385.99999956,0,4545.69696924,107.151515141,4298.42424199,3692.60606024,4439.57575713,3140.36363605,5071.66666616,3247.51515119,4182.5151511,511.030302979,4448.8484844,3535.99999965,4330.36363593,4199.5151511,4894.45454497,3733.81818144,4546.72727227,0,42.0,42.0,?
2017-08-07 13:37:03.710963,4614.21212075,0,4249.48484806,0,3956.87878748,0,3953.27272688,0,4378.78787835,0,4531.27272682,107.151515141,4283.99999957,3692.60606024,4428.75757531,3140.36363605,5077.33333283,3247.51515119,4189.21212079,511.030302979,4449.87878743,3527.7575754,4332.93939351,4199.5151511,4893.42424193,3733.81818144,4556.51515106,0,42.0,42.0,?
2017-08-07 13:37:03.714325,4622.96969651,0,4253.60606018,0,3965.12121172,0,3962.54545415,0,4376.72727229,0,4526.12121167,107.151515141,4275.24242381,3692.60606024,4422.57575713,3140.36363605,5081.96969646,3247.51515119,4202.09090867,511.030302979,4458.63636319,3527.7575754,4343.75757532,4195.39393897,4899.0909086,3733.81818144,4561.1515147,0,42.0,42.0,?
2017-08-07 13:37:03.726176,4632.75757529,0,4266.99999957,0,3966.66666627,0,3976.96969657,0,4381.36363593,0,4541.06060561,107.151515141,4292.75757533,3692.60606024,4433.39393895,3140.36363605,5094.84848434,3247.51515119,4214.45454503,511.030302979,4472.03030258,3527.7575754,4359.21212078,4195.39393897,4916.0909086,3733.81818144,4569.90909045,0,42.0,42.0,?
2017-08-07 13:37:03.730338,4636.3636359,0,4268.54545412,0,3962.03030263,0,3992.93939354,0,4378.78787835,0,4546.72727227,107.151515141,4303.57575715,3692.60606024,4442.66666622,3140.36363605,5100.51515101,3247.51515119,4217.03030261,511.030302979,4476.66666622,3527.7575754,4361.27272684,4195.39393897,4924.33333284,3733.81818144,4571.454545,0,42.0,42.0,?
2017-08-07 13:37:03.734365,4636.87878742,0,4256.69696927,0,3956.36363597,0,4009.42424202,0,4371.57575714,0,4542.60606015,107.151515141,4291.7272723,3692.60606024,4435.96969653,3140.36363605,5094.33333282,3247.51515119,4209.30302988,511.030302979,4465.8484844,3527.7575754,4350.45454502,4195.39393897,4912.48484799,3733.81818144,4559.60606015,0,42.0,42.0,?
2017-08-07 13:37:03.737463,4631.72727226,0,4249.99999958,0,3948.63636324,0,4017.15151475,0,4371.57575714,0,4540.54545409,107.151515141,4282.96969654,3692.60606024,4431.84848441,3140.36363605,5096.39393888,3247.51515119,4199.5151511,511.030302979,4457.60606016,3527.7575754,4344.78787835,4195.39393897,4901.15151466,3733.81818144,4556.51515106,0,42.0,42.0,?
2017-08-07 13:37:03.741715,4627.09090863,0,4252.06060564,0,3938.84848445,0,4034.15151475,0,4369.51515108,0,4540.03030258,107.151515141,4285.0303026,3692.60606024,4431.84848441,3140.36363605,5099.99999949,3247.51515119,4189.21212079,511.030302979,4456.57575713,3527.7575754,4338.60606017,4195.39393897,4903.72727224,3733.81818144,4561.1515147,0,42.0,42.0,?
2017-08-07 13:37:03.746060,4631.21212075,0,4249.48484806,0,3933.6969693,0,4091.84848444,0,4364.36363593,0,4538.48484803,107.151515141,4283.99999957,3692.60606024,4426.69696925,3140.36363605,5097.93939343,3247.51515119,4187.66666625,511.030302979,4451.42424198,3527.7575754,4332.42424199,4195.39393897,4904.24242375,3733.81818144,4554.96969651,0,42.0,42.0,?
2017-08-07 13:37:03.749013,4632.24242378,0,4239.69696927,0,3928.03030264,0,4158.8181814,0,4361.27272684,0,4528.69696924,107.151515141,4278.84848442,3692.60606024,4422.57575713,3140.36363605,5096.39393888,3247.51515119,4188.69696928,511.030302979,4447.81818137,3527.7575754,4330.87878745,4195.39393897,4899.60606012,3733.81818144,4545.69696924,0,42.0,42.0,?
2017-08-07 13:37:03.759779,4627.60606014,0,4234.03030261,0,3919.7878784,0,4188.69696928,0,4354.06060563,0,4513.75757531,107.151515141,4272.66666624,3692.60606024,4421.03030259,3140.36363605,5096.9090904,3247.51515119,4176.84848443,511.030302979,4445.75757531,3527.7575754,4324.69696926,4195.39393897,4893.42424193,3733.81818144,4542.60606015,0,42.0,42.0,?
2017-08-07 13:37:03.764544,4626.57575711,0,4236.60606018,0,3917.21212082,0,4204.15151473,0,4346.3333329,0,4504.99999955,107.151515141,4258.24242382,3692.60606024,4409.69696926,3140.36363605,5097.93939343,3247.51515119,4165.5151511,511.030302979,4437.51515107,3527.7575754,4310.78787836,4195.39393897,4885.18181769,3733.81818144,4544.1515147,0,42.0,42.0,?
2017-08-07 13:37:03.772132,4625.54545408,0,4235.06060564,0,3918.75757537,0,4229.39393897,0,4341.18181775,0,4499.8484844,107.151515141,4246.39393897,3692.60606024,4396.30302986,3140.36363605,5092.27272676,3247.51515119,4167.06060564,511.030302979,4433.39393895,3527.7575754,4304.09090866,4195.39393897,4877.96969648,3733.81818144,4546.21212076,0,42.0,42.0,?
2017-08-07 13:37:03.779776,4622.45454499,0,4226.30302988,0,3915.66666628,0,4239.18181776,0,4336.0303026,0,4497.27272682,107.151515141,4247.424242,3692.60606024,4393.21212077,3140.36363605,5082.99999949,3247.51515119,4164.99999958,511.030302979,4436.48484804,3527.7575754,4306.15151472,4195.39393897,4875.90909042,3733.81818144,4537.454545,0,42.0,42.0,?
2017-08-07 13:37:03.787525,4623.99999954,0,4221.15151473,0,3916.18181779,0,4239.69696927,0,4335.51515108,0,4505.51515106,107.151515141,4253.09090867,3692.60606024,4395.27272683,3140.36363605,5089.18181767,3247.51515119,4159.33333292,511.030302979,4441.12121168,3527.7575754,4309.24242381,4195.39393897,4876.93939345,3733.81818144,4528.18181773,0,42.0,42.0,?
2017-08-07 13:37:03.795586,4626.0606056,0,4223.7272723,0,3919.27272688,0,4253.09090867,0,4346.84848441,0,4513.75757531,107.151515141,4254.63636321,3692.60606024,4397.33333289,3140.36363605,5107.72727222,3247.51515119,4164.99999958,511.030302979,4446.78787834,3527.7575754,4315.93939351,4195.39393897,4881.06060557,3733.81818144,4536.93939349,0,42.0,42.0,?
2017-08-07 13:37:03.806085,4622.96969651,0,4224.24242382,0,3918.75757537,0,4268.54545412,0,4349.9393935,0,4510.66666622,107.151515141,4255.15151473,3692.60606024,4404.54545411,3140.36363605,5115.45454494,3247.51515119,4175.30302989,511.030302979,4445.75757531,3527.7575754,4319.0303026,4195.39393897,4882.60606012,3733.81818144,4543.12121167,0,42.0,42.0,?
2017-08-07 13:37:03.811534,4621.93939348,0,4222.18181776,0,3918.24242385,0,4276.78787836,0,4340.66666623,0,4508.09090864,107.151515141,4260.30302988,3692.60606024,4411.2424238,3140.36363605,5111.84848434,3247.51515119,4172.21212079,511.030302979,4439.06060562,3527.7575754,4312.84848442,4195.39393897,4877.45454497,3733.81818144,4531.78787833,0,42.0,42.0,?
2017-08-07 13:37:03.818417,4620.90909045,0,4220.63636321,0,3920.30302991,0,4284.51515109,0,4344.27272684,0,4512.72727228,107.151515141,4261.33333291,3692.60606024,4409.69696926,3140.36363605,5111.33333282,3247.51515119,4161.39393898,511.030302979,4434.9393935,3527.7575754,4306.15151472,4195.39393897,4869.72727224,3733.81818144,4526.12121167,0,42.0,42.0,?
2017-08-07 13:37:03.831393,4617.30302984,0,4222.18181776,0,3924.42424203,0,4289.15151472,0,4351.99999956,0,4514.27272682,107.151515141,4259.78787836,3692.60606024,4405.57575714,3140.36363605,5115.45454494,3247.51515119,4158.30302989,511.030302979,4435.45454501,3527.7575754,4305.63636321,4195.39393897,4866.12121163,3733.81818144,4532.30302985,0,42.0,42.0,?
2017-08-07 13:37:03.835425,4619.3636359,0,4222.18181776,0,3928.54545415,0,4290.69696927,0,4339.6363632,0,4501.90909046,107.151515141,4260.30302988,3692.60606024,4405.06060562,3140.36363605,5118.03030252,3247.51515119,4158.30302989,511.030302979,4435.96969653,3527.7575754,4302.0303026,4195.39393897,4863.54545406,3733.81818144,4533.8484844,0,42.0,42.0,?
2017-08-07 13:37:03.845013,4622.45454499,0,4221.15151473,0,3933.6969693,0,4289.15151472,0,4326.24242381,0,4491.09090864,107.151515141,4259.27272685,3692.60606024,4406.60606017,3140.36363605,5116.99999949,3247.51515119,4156.24242383,511.030302979,4435.96969653,3527.7575754,4297.39393896,4195.39393897,4861.99999951,3733.81818144,4536.42424197,0,42.0,42.0,?
2017-08-07 13:37:03.851220,4620.39393893,0,4220.63636321,0,3937.81818142,0,4286.57575715,0,4332.42424199,0,4494.18181773,107.151515141,4254.63636321,3692.60606024,4405.06060562,3140.36363605,5117.515151,3247.51515119,4155.72727231,511.030302979,4438.5454541,3527.7575754,4300.99999957,4195.39393897,4861.484848,3733.81818144,4542.60606015,0,42.0,42.0,?
2017-08-07 13:37:03.859695,4619.87878742,0,4221.66666624,0,3939.87878748,0,4284.51515109,0,4341.18181775,0,4502.42424197,107.151515141,4253.09090867,3692.60606024,4398.87878744,3140.36363605,5114.42424191,3247.51515119,4152.63636322,511.030302979,4444.21212077,3527.7575754,4300.99999957,4195.39393897,4858.39393891,3733.81818144,4542.60606015,0,42.0,42.0,?
2017-08-07 13:37:03.865818,4620.90909045,0,4219.60606018,0,3940.90909052,0,4285.54545412,0,4339.6363632,0,4504.48484803,107.151515141,4257.21212079,3692.60606024,4395.78787835,3140.36363605,5104.63636313,3247.51515119,4144.39393898,511.030302979,4447.30302986,3527.7575754,4296.36363593,4195.39393897,4858.39393891,3733.81818144,4536.93939349,0,42.0,42.0,?
2017-08-07 13:37:03.873726,4620.39393893,0,4218.57575715,0,3941.42424203,0,4285.0303026,0,4334.99999957,0,4499.8484844,107.151515141,4252.06060564,3692.60606024,4396.81818138,3140.36363605,5101.03030252,3247.51515119,4143.36363595,511.030302979,4446.78787834,3527.7575754,4298.42424199,4195.39393897,4861.484848,3733.81818144,4535.90909046,0,42.0,42.0,?
2017-08-07 13:37:03.882284,4621.42424196,0,4219.09090867,0,3941.42424203,0,4280.90909048,0,4330.87878745,0,4494.18181773,107.151515141,4240.7272723,3692.60606024,4394.2424238,3140.36363605,5104.12121161,3247.51515119,4145.93939352,511.030302979,4445.75757531,3527.7575754,4298.93939351,4195.39393897,4856.84848436,3733.81818144,4538.48484803,0,42.0,42.0,?
2017-08-07 13:37:03.889165,4622.96969651,0,4213.93939352,0,3937.81818142,0,4278.84848442,0,4330.87878745,0,4493.1515147,107.151515141,4237.63636321,3692.60606024,4388.57575714,3140.36363605,5100.51515101,3247.51515119,4140.78787837,511.030302979,4447.30302986,3527.7575754,4290.18181775,4195.39393897,4851.1818177,3733.81818144,4534.36363591,0,42.0,42.0,?
2017-08-07 13:37:03.898374,4617.30302984,0,4206.72727231,0,3937.30302991,0,4276.78787836,0,4333.45454502,0,4496.75757531,107.151515141,4245.36363594,3692.60606024,4389.09090865,3140.36363605,5091.24242373,3247.51515119,4139.24242383,511.030302979,4446.27272683,3527.7575754,4287.09090866,4195.39393897,4854.7878783,3733.81818144,4529.72727227,0,42.0,42.0,?
2017-08-07 13:37:03.904472,4608.54545408,0,4202.60606019,0,3932.15151476,0,4271.12121169,0,4333.96969654,0,4494.69696925,107.151515141,4242.27272685,3692.60606024,4385.48484805,3140.36363605,5087.63636313,3247.51515119,4141.30302989,511.030302979,4441.12121168,3527.7575754,4290.18181775,4195.39393897,4855.30302982,3733.81818144,4524.06060561,0,42.0,42.0,?
2017-08-07 13:37:03.912750,4604.93939348,0,4198.99999958,0,3923.393939,0,4265.96969654,0,4327.78787836,0,4484.39393895,107.151515141,4222.18181776,3692.60606024,4375.18181774,3140.36363605,5084.54545404,3247.51515119,4133.06060565,511.030302979,4436.99999956,3527.7575754,4284.51515109,4195.39393897,4848.09090861,3733.81818144,4513.75757531,0,42.0,42.0,?
2017-08-07 13:37:03.920286,4601.84848439,0,4197.45454503,0,3926.99999961,0,4261.33333291,0,4317.99999957,0,4474.09090864,107.151515141,4214.45454503,3692.60606024,4370.54545411,3140.36363605,5081.45454495,3247.51515119,4124.81818141,511.030302979,4433.39393895,3527.7575754,4276.27272685,4195.39393897,4845.51515103,3733.81818144,4510.1515147,0,42.0,42.0,?
2017-08-07 13:37:03.929044,4598.7575753,0,4195.39393897,0,3930.0909087,0,4256.69696927,0,4314.90909048,0,4475.12121167,107.151515141,4218.06060564,3692.60606024,4365.90909047,3140.36363605,5080.42424192,3247.51515119,4124.81818141,511.030302979,4430.81818138,3527.7575754,4273.69696927,4195.39393897,4846.03030255,3733.81818144,4512.21212076,0,42.0,42.0,?
2017-08-07 13:37:03.936415,4600.81818136,0,4194.87878746,0,3923.90909052,0,4255.66666624,0,4319.0303026,0,4484.39393895,107.151515141,4215.99999958,3692.60606024,4362.81818138,3140.36363605,5078.87878737,3247.51515119,4125.33333292,511.030302979,4430.81818138,3527.7575754,4270.09090866,4195.39393897,4842.42424194,3733.81818144,4508.09090864,0,42.0,42.0,?
2017-08-07 13:37:03.945841,4599.27272681,0,4195.90909049,0,3921.33333294,0,4260.30302988,0,4321.09090866,0,4492.63636319,107.151515141,4224.24242382,3692.60606024,4374.15151471,3140.36363605,5081.96969646,3247.51515119,4124.81818141,511.030302979,4427.21212077,3527.7575754,4264.93939351,4195.39393897,4838.30302982,3733.81818144,4508.09090864,0,42.0,42.0,?
2017-08-07 13:37:03.950828,4598.24242378,0,4195.90909049,0,3925.45454506,0,4261.84848442,0,4321.60606017,0,4497.27272682,107.151515141,4244.84848442,3692.60606024,4385.48484805,3140.36363605,5089.69696919,3247.51515119,4125.84848444,511.030302979,4429.27272683,3527.7575754,4271.63636321,4195.39393897,4844.99999952,3733.81818144,4513.24242379,0,42.0,42.0,?
2017-08-07 13:37:03.962118,4602.3636359,0,4197.45454503,0,3928.54545415,0,4258.75757533,0,4324.18181775,0,4496.24242379,107.151515141,4250.51515109,3692.60606024,4388.06060562,3140.36363605,5087.63636313,3247.51515119,4127.39393898,511.030302979,4433.39393895,3527.7575754,4276.78787836,4195.39393897,4852.21212073,3733.81818144,4512.21212076,0,42.0,42.0,?
2017-08-07 13:37:03.966947,4602.3636359,0,4198.48484806,0,3929.06060567,0,4257.21212079,0,4317.99999957,0,4491.60606016,107.151515141,4243.30302988,3692.60606024,4388.06060562,3140.36363605,5075.78787828,3247.51515119,4126.87878747,511.030302979,4433.90909047,3527.7575754,4269.57575715,4195.39393897,4846.54545406,3733.81818144,4509.63636319,0,42.0,42.0,?
2017-08-07 13:37:03.975029,4597.72727227,0,4193.33333291,0,3925.96969658,0,4254.1212117,0,4313.87878745,0,4490.57575713,107.151515141,4244.84848442,3692.60606024,4386.51515108,3140.36363605,5077.33333283,3247.51515119,4123.78787838,511.030302979,4432.36363592,3527.7575754,4265.96969654,4195.39393897,4837.27272679,3733.81818144,4510.66666622,0,42.0,42.0,?
2017-08-07 13:37:03.983604,4596.18181772,0,4185.09090867,0,3917.72727234,0,4246.39393897,0,4323.15151472,0,4492.12121167,107.151515141,4245.87878745,3692.60606024,4383.9393935,3140.36363605,5084.03030252,3247.51515119,4126.87878747,511.030302979,4431.33333289,3527.7575754,4271.63636321,4195.39393897,4838.81818133,3733.81818144,4511.18181773,0,42.0,42.0,?
2017-08-07 13:37:03.989964,4595.66666621,0,4186.63636322,0,3916.18181779,0,4241.75757533,0,4324.69696926,0,4492.63636319,107.151515141,4235.57575715,3692.60606024,4377.2424238,3140.36363605,5072.69696919,3247.51515119,4126.87878747,511.030302979,4430.81818138,3527.7575754,4272.15151472,4195.39393897,4844.99999952,3733.81818144,4507.57575713,0,42.0,42.0,?
2017-08-07 13:37:03.999258,4589.48484803,0,4186.63636322,0,3918.75757537,0,4241.75757533,0,4314.39393896,0,4492.63636319,107.151515141,4228.87878746,3692.60606024,4371.57575714,3140.36363605,5060.33333283,3247.51515119,4113.99999959,511.030302979,4425.66666622,3527.7575754,4262.36363594,4195.39393897,4839.84848436,3733.81818144,4504.99999955,0,42.0,42.0,?
2017-08-07 13:37:04.006858,4589.48484803,0,4177.36363595,0,3907.93939355,0,4236.09090867,0,4314.39393896,0,4497.78787834,107.151515141,4238.66666624,3692.60606024,4376.72727229,3140.36363605,5067.54545404,3247.51515119,4109.87878747,511.030302979,4423.09090865,3527.7575754,4261.84848442,4195.39393897,4837.27272679,3733.81818144,4501.39393894,0,42.0,42.0,?
2017-08-07 13:37:04.014400,4595.15151469,0,4173.75757534,0,3908.45454506,0,4231.45454503,0,4322.12121169,0,4500.36363591,107.151515141,4241.24242382,3692.60606024,4385.99999956,3140.36363605,5077.84848434,3247.51515119,4122.24242383,511.030302979,4425.66666622,3527.7575754,4270.09090866,4195.39393897,4839.33333285,3733.81818144,4501.90909046,0,42.0,42.0,?
2017-08-07 13:37:04.022000,4593.60606015,0,4175.30302989,0,3930.0909087,0,4233.51515109,0,4321.60606017,0,4494.69696925,107.151515141,4225.78787837,3692.60606024,4382.39393896,3140.36363605,5072.69696919,3247.51515119,4117.60606019,511.030302979,4420.51515107,3527.7575754,4262.87878745,4195.39393897,4827.99999952,3733.81818144,4506.03030258,0,42.0,42.0,?
2017-08-07 13:37:04.030133,4588.96969651,0,4173.24242383,0,3935.24242385,0,4233.51515109,0,4316.96969654,0,4492.63636319,107.151515141,4218.06060564,3692.60606024,4372.09090865,3140.36363605,5061.87878737,3247.51515119,4094.42424201,511.030302979,4411.75757532,3527.7575754,4242.78787836,4195.39393897,4817.1818177,3733.81818144,4501.39393894,0,42.0,42.0,?
2017-08-07 13:37:04.037530,4587.42424197,0,4170.15151473,0,3926.48484809,0,4226.8181814,0,4311.81818139,0,4492.63636319,107.151515141,4226.8181814,3692.60606024,4371.57575714,3140.36363605,5059.3030298,3247.51515119,4087.2121208,511.030302979,4406.09090865,3527.7575754,4234.03030261,4195.39393897,4819.24242376,3733.81818144,4495.21212076,0,42.0,42.0,?
2017-08-07 13:37:04.045941,4588.96969651,0,4167.06060564,0,3926.48484809,0,4223.21212079,0,4311.81818139,0,4493.1515147,107.151515141,4229.39393897,3692.60606024,4377.75757532,3140.36363605,5058.78787828,3247.51515119,4099.06060565,511.030302979,4408.66666623,3527.7575754,4237.63636321,4195.39393897,4823.8787874,3733.81818144,4495.21212076,0,42.0,42.0,?
2017-08-07 13:37:04.054163,4591.54545409,0,4162.93939352,0,3929.06060567,0,4225.78787837,0,4319.54545411,0,4495.72727228,107.151515141,4229.39393897,3692.60606024,4382.39393896,3140.36363605,5059.3030298,3247.51515119,4106.27272686,511.030302979,4414.33333289,3527.7575754,4236.09090867,4195.39393897,4825.93939346,3733.81818144,4498.81818137,0,42.0,42.0,?
2017-08-07 13:37:04.062010,4592.0606056,0,4166.03030261,0,3930.0909087,0,4226.30302988,0,4320.06060563,0,4496.24242379,107.151515141,4237.1212117,3692.60606024,4386.51515108,3140.36363605,5065.48484798,3247.51515119,4108.33333292,511.030302979,4414.84848441,3527.7575754,4232.99999958,4195.39393897,4830.57575709,3733.81818144,4501.39393894,0,42.0,42.0,?
2017-08-07 13:37:04.069387,4593.09090863,0,4170.15151473,0,3930.60606021,0,4226.30302988,0,4313.36363593,0,4495.72727228,107.151515141,4240.21212079,3692.60606024,4391.15151471,3140.36363605,5068.06060555,3247.51515119,4110.9090905,511.030302979,4415.36363592,3527.7575754,4231.96969655,4195.39393897,4835.72727224,3733.81818144,4501.90909046,0,42.0,42.0,?
2017-08-07 13:37:04.075750,4594.12121166,3845.09090871,4159.33333292,0,3929.57575718,0,4222.18181776,0,4316.96969654,0,4496.75757531,107.151515141,4236.60606018,3692.60606024,4388.06060562,3140.36363605,5058.78787828,3247.51515119,4108.33333292,511.030302979,4415.36363592,3527.7575754,4224.75757534,4195.39393897,4832.12121164,3733.81818144,4498.30302985,0,42.0,42.0,?
2017-08-07 13:37:04.085706,4592.57575712,3845.09090871,4153.66666625,4166.54545413,3928.03030264,0,4214.45454503,0,4322.6363632,0,4497.78787834,107.151515141,4236.60606018,3692.60606024,4383.9393935,3140.36363605,5053.63636313,3247.51515119,4100.6060602,511.030302979,4408.66666623,3527.7575754,4216.51515109,4195.39393897,4826.45454497,3733.81818144,4496.24242379,0,42.0,42.0,?
2017-08-07 13:37:04.092529,4592.57575712,3845.09090871,4162.42424201,4166.54545413,3930.60606021,0,4209.30302988,0,4319.0303026,0,4493.66666622,107.151515141,4237.63636321,3692.60606024,4390.6363632,3140.36363605,5057.24242374,3247.51515119,4096.48484808,511.030302979,4405.06060562,3527.7575754,4218.06060564,4195.39393897,4831.09090861,3733.81818144,4499.33333288,94.7878787784,42.0,42.0,?
2017-08-07 13:37:04.099847,4593.09090863,3845.09090871,4161.90909049,4166.54545413,3930.60606021,585.212121154,4207.24242382,0,4311.81818139,0,4489.03030258,107.151515141,4232.99999958,3692.60606024,4386.51515108,3140.36363605,5052.6060601,3247.51515119,4095.96969656,511.030302979,4405.06060562,3527.7575754,4216.51515109,4195.39393897,4831.09090861,3733.81818144,4498.30302985,94.7878787784,42.0,42.0,?
2017-08-07 13:37:04.110060,4584.33333287,3845.09090871,4154.18181777,4166.54545413,3923.393939,585.212121154,4179.42424201,284.363636335,4310.78787836,403.878787838,4478.72727228,107.151515141,4201.57575716,3692.60606024,4350.96969653,3140.36363605,5035.09090859,3247.51515119,4090.30302989,511.030302979,4398.36363592,3527.7575754,4195.39393897,4195.39393897,4817.69696922,3733.81818144,4493.66666622,94.7878787784,42.0,42.0,?
2017-08-07 13:37:04.121399,4584.33333287,3845.09090871,4154.18181777,4166.54545413,3923.393939,585.212121154,4179.42424201,284.363636335,4310.78787836,403.878787838,4478.72727228,107.151515141,4201.57575716,3692.60606024,4350.96969653,3140.36363605,5035.09090859,3247.51515119,4090.30302989,511.030302979,4398.36363592,3527.7575754,4195.39393897,4195.39393897,4817.69696922,3733.81818144,4493.66666622,94.7878787784,42.0,42.0,?
2017-08-07 13:37:04.123638,4587.42424197,3845.09090871,4156.75757534,4166.54545413,3926.99999961,585.212121154,4173.24242383,284.363636335,4312.84848442,403.878787838,4481.81818137,98.9090908992,4204.66666625,3692.60606024,4362.30302987,3140.36363605,5043.33333283,3247.51515119,4091.33333292,511.030302979,4398.87878744,3527.7575754,4200.54545413,4195.39393897,4823.36363588,3733.81818144,4494.69696925,94.7878787784,42.0,42.0,?
2017-08-07 13:37:04.132694,4591.54545409,3845.09090871,4157.78787837,4166.54545413,3935.75757536,585.212121154,4176.84848443,284.363636335,4312.3333329,403.878787838,4494.18181773,98.9090908992,4218.06060564,3692.60606024,4375.69696926,3140.36363605,5048.48484798,3247.51515119,4096.48484808,511.030302979,4402.99999956,3527.7575754,4204.66666625,4195.39393897,4828.51515103,3733.81818144,4496.24242379,94.7878787784,42.0,42.0,?
2017-08-07 13:37:04.139492,4593.60606015,3845.09090871,4159.33333292,4166.54545413,3937.30302991,585.212121154,4175.30302989,284.363636335,4314.39393896,403.878787838,4500.36363591,98.9090908992,4223.7272723,3692.60606024,4377.2424238,3132.12121181,5042.81818131,3247.51515119,4105.24242383,511.030302979,4409.18181774,3527.7575754,4204.66666625,4195.39393897,4834.1818177,3733.81818144,4500.36363591,94.7878787784,42.0,42.0,?
2017-08-07 13:37:04.147150,4596.69696924,3845.09090871,4160.87878746,4166.54545413,3938.33333294,585.212121154,4170.66666625,284.363636335,4318.51515108,403.878787838,4492.12121167,98.9090908992,4219.09090867,3692.60606024,4371.06060562,3132.12121181,5042.81818131,3247.51515119,4104.72727232,511.030302979,4411.2424238,3527.7575754,4203.1212117,4195.39393897,4836.75757527,3733.81818144,4507.06060561,94.7878787784,42.0,42.0,?
2017-08-07 13:37:04.155010,4598.7575753,3845.09090871,4158.8181814,4166.54545413,3939.36363597,585.212121154,4169.63636322,284.363636335,4315.93939351,403.878787838,4486.45454501,98.9090908992,4217.54545412,3692.60606024,4371.06060562,3132.12121181,5053.12121162,3247.51515119,4104.72727232,515.1515151,4414.84848441,3527.7575754,4208.27272685,4195.39393897,4840.87878739,3733.81818144,4512.21212076,94.7878787784,42.0,42.0,?
2017-08-07 13:37:04.163711,4600.81818136,3845.09090871,4157.27272686,4166.54545413,3934.72727233,585.212121154,4169.1212117,284.363636335,4315.42424199,403.878787838,4491.60606016,98.9090908992,4220.63636321,3692.60606024,4376.72727229,3132.12121181,5053.12121162,3247.51515119,4113.48484807,515.1515151,4417.9393935,3540.12121177,4215.99999958,4195.39393897,4848.60606012,3733.81818144,4510.66666622,94.7878787784,42.0,42.0,?
2017-08-07 13:37:04.169749,4599.78787833,3845.09090871,4157.78787837,4166.54545413,3931.63636324,585.212121154,4168.09090867,284.363636335,4322.12121169,403.878787838,4499.8484844,98.9090908992,4228.87878746,3692.60606024,4379.81818138,3132.12121181,5049.51515101,3247.51515119,4116.06060565,515.1515151,4417.42424198,3540.12121177,4213.424242,4199.5151511,4849.12121164,3733.81818144,4502.42424197,94.7878787784,42.0,42.0,?
2017-08-07 13:37:04.177801,4591.03030257,3845.09090871,4156.75757534,4166.54545413,3930.0909087,585.212121154,4163.45454504,284.363636335,4321.60606017,403.878787838,4498.30302985,98.9090908992,4234.03030261,3692.60606024,4384.45454502,3132.12121181,5055.69696919,3247.51515119,4109.87878747,515.1515151,4416.39393895,3540.12121177,4204.66666625,4199.5151511,4842.42424194,3725.5757572,4500.36363591,94.7878787784,42.0,42.0,?
2017-08-07 13:37:04.186247,4586.90909045,3845.09090871,4154.69696928,4166.54545413,3929.06060567,585.212121154,4156.75757534,284.363636335,4315.93939351,403.878787838,4487.48484804,98.9090908992,4226.8181814,3692.60606024,4382.90909047,3132.12121181,5058.78787828,3247.51515119,4109.87878747,523.393939342,4416.39393895,3540.12121177,4204.15151473,4199.5151511,4840.87878739,3725.5757572,4505.51515106,94.7878787784,42.0,42.0,?
2017-08-07 13:37:04.193791,4596.69696924,3845.09090871,4156.24242383,4166.54545413,3934.21212082,585.212121154,4159.33333292,284.363636335,4310.27272684,403.878787838,4479.24242379,98.9090908992,4217.03030261,3692.60606024,4372.60606017,3132.12121181,5053.12121162,3247.51515119,4112.45454504,523.393939342,4419.99999956,3540.12121177,4208.27272685,4199.5151511,4846.03030255,3725.5757572,4512.21212076,94.7878787784,42.0,42.0,?
2017-08-07 13:37:04.203986,4600.81818136,3845.09090871,4158.8181814,4166.54545413,3943.99999961,585.212121154,4161.90909049,284.363636335,4306.15151472,403.878787838,4476.1515147,98.9090908992,4209.30302988,3692.60606024,4368.48484805,3132.12121181,5046.93939343,3247.51515119,4109.36363595,523.393939342,4418.96969653,3540.12121177,4202.60606019,4199.5151511,4844.484848,3725.5757572,4511.69696925,94.7878787784,42.0,42.0,?
2017-08-07 13:37:04.209368,4595.15151469,3845.09090871,4157.78787837,4166.54545413,3945.03030264,585.212121154,4156.75757534,284.363636335,4309.24242381,403.878787838,4476.1515147,98.9090908992,4207.24242382,3692.60606024,4370.03030259,3132.12121181,5043.33333283,3247.51515119,4108.84848444,523.393939342,4412.78787835,3540.12121177,4192.8181814,4199.5151511,4835.72727224,3725.5757572,4506.54545409,94.7878787784,42.0,42.0,?
2017-08-07 13:37:04.216902,4594.63636318,3845.09090871,4158.30302989,4166.54545413,3938.84848445,585.212121154,4153.15151474,284.363636335,4316.96969654,403.878787838,4486.45454501,98.9090908992,4213.424242,3692.60606024,4367.96969653,3132.12121181,5041.78787828,3247.51515119,4107.30302989,523.393939342,4413.30302986,3540.12121177,4190.24242382,4199.5151511,4834.1818177,3725.5757572,4508.09090864,94.7878787784,42.0,42.0,?
2017-08-07 13:37:04.225803,4596.18181772,3845.09090871,4159.33333292,4166.54545413,3934.21212082,585.212121154,4152.63636322,284.363636335,4317.48484805,403.878787838,4491.60606016,98.9090908992,4218.57575715,3692.60606024,4366.42424199,3132.12121181,5041.27272677,3247.51515119,4101.12121171,523.393939342,4410.72727229,3540.12121177,4187.15151473,4199.5151511,4836.24242376,3725.5757572,4505.51515106,94.7878787784,42.0,42.0,?
2017-08-07 13:37:04.236853,4593.60606015,3845.09090871,4155.72727231,4166.54545413,3934.72727233,585.212121154,4149.03030262,284.363636335,4311.81818139,403.878787838,4484.90909046,98.9090908992,4218.06060564,3692.60606024,4369.51515108,3132.12121181,5041.78787828,3247.51515119,4102.66666626,523.393939342,4406.60606017,3540.12121177,4186.63636322,4199.5151511,4833.66666618,3725.5757572,4497.78787834,94.7878787784,42.0,42.0,?
2017-08-07 13:37:04.241709,4592.57575712,3845.09090871,4160.87878746,4166.54545413,3940.90909052,585.212121154,4144.39393898,284.363636335,4315.93939351,403.878787838,4487.99999955,98.9090908992,4221.66666624,3692.60606024,4376.21212077,3132.12121181,5046.42424192,3247.51515119,4111.93939353,523.393939342,4413.81818138,3540.12121177,4193.84848443,4199.5151511,4834.69696921,3725.5757572,4501.90909046,94.7878787784,42.0,42.0,?
2017-08-07 13:37:04.250579,4594.63636318,3845.09090871,4171.69696928,4166.54545413,3945.03030264,585.212121154,4140.27272686,284.363636335,4322.6363632,403.878787838,4492.63636319,98.9090908992,4227.84848443,3692.60606024,4381.87878744,3132.12121181,5047.96969646,3247.51515119,4114.5151511,523.393939342,4418.96969653,3540.12121177,4196.93939352,4199.5151511,4842.93939346,3725.5757572,4511.69696925,94.7878787784,42.0,42.0,?
2017-08-07 13:37:04.256165,4596.69696924,3845.09090871,4171.69696928,4166.54545413,3938.84848445,585.212121154,4136.66666625,284.363636335,4318.51515108,403.878787838,4488.51515107,98.9090908992,4234.03030261,3692.60606024,4389.09090865,3132.12121181,5046.42424192,3247.51515119,4113.99999959,523.393939342,4419.48484804,3540.12121177,4195.39393897,4199.5151511,4847.06060558,3725.5757572,4509.12121167,94.7878787784,42.0,42.0,?
2017-08-07 13:37:04.263710,4596.18181772,3845.09090871,4167.57575716,4166.54545413,3935.75757536,585.212121154,4134.60606019,284.363636335,4314.90909048,403.878787838,4491.60606016,98.9090908992,4241.75757533,3692.60606024,4396.30302986,3132.12121181,5052.09090859,3247.51515119,4117.09090868,523.393939342,4418.96969653,3540.12121177,4196.93939352,4199.5151511,4846.03030255,3725.5757572,4507.57575713,94.7878787784,42.0,42.0,?
2017-08-07 13:37:04.272577,4596.18181772,3845.09090871,4171.69696928,4166.54545413,3939.36363597,585.212121154,4136.15151474,284.363636335,4320.06060563,403.878787838,4499.33333288,98.9090908992,4239.18181776,3692.60606024,4393.72727229,3132.12121181,5056.21212071,3247.51515119,4116.57575716,523.393939342,4416.39393895,3540.12121177,4193.84848443,4199.5151511,4845.51515103,3725.5757572,4513.75757531,94.7878787784,42.0,42.0,?
2017-08-07 13:37:04.279764,4597.21212075,3845.09090871,4174.78787837,4166.54545413,3943.99999961,585.212121154,4137.18181777,284.363636335,4323.15151472,403.878787838,4496.75757531,98.9090908992,4235.57575715,3692.60606024,4388.57575714,3132.12121181,5057.24242374,3247.51515119,4116.57575716,523.393939342,4421.03030259,3540.12121177,4187.15151473,4199.5151511,4848.09090861,3725.5757572,4512.21212076,94.7878787784,42.0,42.0,?
2017-08-07 13:37:04.289576,4598.7575753,3845.09090871,4172.72727231,4166.54545413,3942.45454506,585.212121154,4133.57575716,284.363636335,4319.0303026,403.878787838,4495.21212076,98.9090908992,4235.57575715,3692.60606024,4388.06060562,3132.12121181,5055.69696919,3247.51515119,4118.63636322,523.393939342,4423.60606016,3540.12121177,4186.1212117,4199.5151511,4848.09090861,3725.5757572,4510.1515147,94.7878787784,42.0,42.0,?
2017-08-07 13:37:04.295098,4596.18181772,3845.09090871,4172.21212079,4166.54545413,3938.84848445,585.212121154,4128.42424201,284.363636335,4319.0303026,403.878787838,4496.75757531,98.9090908992,4226.8181814,3692.60606024,4384.45454502,3132.12121181,5050.03030253,3247.51515119,4117.60606019,523.393939342,4422.57575713,3540.12121177,4184.06060564,4199.5151511,4845.51515103,3725.5757572,4512.21212076,94.7878787784,42.0,42.0,?
2017-08-07 13:37:04.302619,4596.18181772,3845.09090871,4172.72727231,4166.54545413,3940.90909052,585.212121154,4129.45454504,284.363636335,4324.69696926,403.878787838,4501.90909046,98.9090908992,4223.7272723,3692.60606024,4384.45454502,3132.12121181,5050.03030253,3247.51515119,4121.2121208,523.393939342,4425.66666622,3540.12121177,4182.5151511,4199.5151511,4847.57575709,3725.5757572,4512.72727228,94.7878787784,42.0,42.0,?
2017-08-07 13:37:04.312345,4601.84848439,3845.09090871,4173.24242383,4166.54545413,3944.51515112,585.212121154,4133.57575716,284.363636335,4330.87878745,403.878787838,4508.60606016,98.9090908992,4234.54545412,3692.60606024,4392.69696926,3132.12121181,5060.33333283,3247.51515119,4127.39393898,523.393939342,4430.30302986,3540.12121177,4189.21212079,4199.5151511,4854.7878783,3725.5757572,4515.30302985,94.7878787784,42.0,42.0,?
2017-08-07 13:37:04.318672,4601.84848439,3845.09090871,4174.27272686,4166.54545413,3945.54545415,585.212121154,4128.42424201,284.363636335,4330.36363593,403.878787838,4501.90909046,98.9090908992,4239.69696927,3692.60606024,4392.18181774,3132.12121181,5060.84848434,3247.51515119,4125.84848444,523.393939342,4426.69696925,3540.12121177,4188.69696928,4199.5151511,4853.75757527,3725.5757572,4519.42424197,94.7878787784,42.0,42.0,?
2017-08-07 13:37:04.326807,4592.57575712,3845.09090871,4172.72727231,4166.54545413,3942.96969658,585.212121154,4120.69696928,284.363636335,4329.3333329,403.878787838,4493.66666622,98.9090908992,4234.03030261,3692.60606024,4387.03030259,3132.12121181,5050.54545404,3247.51515119,4118.12121171,523.393939342,4423.09090865,3540.12121177,4174.78787837,4199.5151511,4843.45454497,3725.5757572,4515.30302985,94.7878787784,42.0,42.0,?
2017-08-07 13:37:04.341705,4593.09090863,3845.09090871,4176.33333292,4166.54545413,3943.48484809,585.212121154,4121.2121208,284.363636335,4331.39393896,403.878787838,4499.33333288,98.9090908992,4233.51515109,3692.60606024,4389.09090865,3132.12121181,5047.45454495,3247.51515119,4116.06060565,523.393939342,4424.63636319,3540.12121177,4170.15151473,4199.5151511,4844.99999952,3725.5757572,4514.78787834,94.7878787784,42.0,42.0,?
2017-08-07 13:37:04.342776,4600.81818136,3845.09090871,4185.60606019,4166.54545413,3947.60606021,585.212121154,4122.24242383,284.363636335,4315.93939351,403.878787838,4500.87878743,98.9090908992,4237.1212117,3692.60606024,4387.54545411,3132.12121181,5053.12121162,3247.51515119,4120.18181777,523.393939342,4426.69696925,3540.12121177,4179.93939352,4199.5151511,4852.21212073,3725.5757572,4521.48484803,94.7878787784,42.0,42.0,?
2017-08-07 13:37:04.351260,4595.15151469,3845.09090871,4185.09090867,4166.54545413,3937.30302991,585.212121154,4116.06060565,284.363636335,4320.06060563,403.878787838,4490.06060561,98.9090908992,4225.27272685,3692.60606024,4373.6363632,3132.12121181,5044.36363586,3247.51515119,4114.5151511,523.393939342,4427.21212077,3540.12121177,4171.69696928,4199.5151511,4842.42424194,3725.5757572,4513.75757531,94.7878787784,42.0,42.0,?
2017-08-07 13:37:04.358370,4595.15151469,3845.09090871,4185.09090867,4166.54545413,3937.30302991,585.212121154,4116.06060565,284.363636335,4320.06060563,403.878787838,4490.06060561,98.9090908992,4225.27272685,3692.60606024,4373.6363632,3132.12121181,5044.36363586,3247.51515119,4114.5151511,523.393939342,4427.21212077,3540.12121177,4171.69696928,4199.5151511,4842.42424194,3725.5757572,4513.75757531,94.7878787784,42.0,42.0,?
2017-08-07 13:37:04.366249,4591.03030257,3845.09090871,4174.27272686,4166.54545413,3932.15151476,585.212121154,4115.54545413,284.363636335,4327.78787836,403.878787838,4490.06060561,98.9090908992,4210.84848443,3692.60606024,4366.42424199,3132.12121181,5034.06060556,3247.51515119,4105.24242383,523.393939342,4416.90909047,3540.12121177,4162.93939352,4199.5151511,4844.484848,3725.5757572,4509.63636319,94.7878787784,42.0,42.0,?
2017-08-07 13:37:04.374085,4588.96969651,3845.09090871,4174.78787837,4166.54545413,3936.27272688,585.212121154,4111.42424201,284.363636335,4324.69696926,403.878787838,4486.45454501,98.9090908992,4211.36363594,3692.60606024,4362.30302987,3132.12121181,5032.51515101,3247.51515119,4103.69696929,523.393939342,4415.87878744,3540.12121177,4161.39393898,4199.5151511,4843.96969649,3725.5757572,4502.42424197,94.7878787784,42.0,42.0,?
2017-08-07 13:37:04.387991,4601.84848439,3845.09090871,4194.36363594,4166.54545413,3940.90909052,585.212121154,4114.5151511,284.363636335,4325.72727229,403.878787838,4496.75757531,98.9090908992,4229.39393897,3692.60606024,4384.96969653,3132.12121181,5045.9090904,3247.51515119,4123.27272686,523.393939342,4423.60606016,3540.12121177,4179.93939352,4199.5151511,4859.42424194,3725.5757572,4527.1515147,94.7878787784,42.0,42.0,?
2017-08-07 13:37:04.392516,4601.84848439,3845.09090871,4194.36363594,4166.54545413,3940.90909052,585.212121154,4114.5151511,284.363636335,4325.72727229,403.878787838,4496.75757531,98.9090908992,4229.39393897,3692.60606024,4384.96969653,3132.12121181,5045.9090904,3247.51515119,4123.27272686,523.393939342,4423.60606016,3540.12121177,4179.93939352,4199.5151511,4859.42424194,3725.5757572,4527.1515147,94.7878787784,42.0,42.0,?
2017-08-07 13:37:04.397728,4600.30302984,3845.09090871,4190.75757534,4166.54545413,3940.90909052,585.212121154,4109.36363595,284.363636335,4321.60606017,403.878787838,4497.27272682,98.9090908992,4238.66666624,3692.60606024,4391.66666623,3132.12121181,5064.45454495,3247.51515119,4130.99999959,523.393939342,4425.15151471,3540.12121177,4183.03030261,4199.5151511,4861.99999951,3725.5757572,4529.72727227,94.7878787784,42.0,42.0,?
2017-08-07 13:37:04.405302,4594.63636318,3845.09090871,4191.27272685,4166.54545413,3941.93939355,585.212121154,4103.18181777,284.363636335,4319.0303026,403.878787838,4492.63636319,98.9090908992,4243.81818139,3692.60606024,4397.84848441,3132.12121181,5070.63636313,3247.51515119,4134.60606019,523.393939342,4422.06060562,3540.12121177,4184.57575716,4199.5151511,4855.81818133,3725.5757572,4515.30302985,94.7878787784,42.0,42.0,?
2017-08-07 13:37:04.413557,4596.18181772,3845.09090871,4194.36363594,4166.54545413,3940.90909052,585.212121154,4102.15151474,284.363636335,4327.78787836,403.878787838,4501.39393894,98.9090908992,4246.39393897,3692.60606024,4402.99999956,3132.12121181,5062.39393889,3247.51515119,4134.09090868,523.393939342,4418.96969653,3540.12121177,4185.60606019,4199.5151511,4859.42424194,3725.5757572,4511.69696925,94.7878787784,42.0,42.0,?
2017-08-07 13:37:04.424784,4596.69696924,3845.09090871,4192.8181814,4166.54545413,3935.24242385,585.212121154,4101.63636323,284.363636335,4331.90909048,403.878787838,4511.69696925,98.9090908992,4253.09090867,3692.60606024,4402.48484804,3132.12121181,5063.42424192,3247.51515119,4129.45454504,523.393939342,4418.96969653,3540.12121177,4181.99999958,4199.5151511,4860.45454497,3725.5757572,4514.27272682,94.7878787784,42.0,42.0,?
2017-08-07 13:37:04.427922,4593.60606015,3845.09090871,4191.27272685,4166.54545413,3934.21212082,585.212121154,4096.48484808,284.363636335,4326.75757532,403.878787838,4504.48484803,98.9090908992,4252.57575715,3692.60606024,4397.84848441,3132.12121181,5066.51515101,3247.51515119,4125.84848444,523.393939342,4415.87878744,3540.12121177,4176.84848443,4199.5151511,4849.63636315,3725.5757572,4512.21212076,94.7878787784,42.0,42.0,?
2017-08-07 13:37:04.436471,4590.51515106,3845.09090871,4187.66666625,4166.54545413,3935.24242385,585.212121154,4090.30302989,284.363636335,4325.72727229,403.878787838,4493.1515147,98.9090908992,4240.7272723,3692.60606024,4394.2424238,3132.12121181,5055.18181768,3247.51515119,4120.18181777,523.393939342,4411.75757532,3540.12121177,4172.72727231,4199.5151511,4843.45454497,3725.5757572,4508.09090864,94.7878787784,42.0,42.0,?
2017-08-07 13:37:04.444356,4591.03030257,3845.09090871,4187.15151473,4166.54545413,3931.63636324,585.212121154,4087.2121208,284.363636335,4328.81818139,403.878787838,4495.21212076,98.9090908992,4240.21212079,3692.60606024,4390.6363632,3132.12121181,5048.9999995,3247.51515119,4113.99999959,523.393939342,4409.69696926,3540.12121177,4168.09090867,4199.5151511,4843.96969649,3725.5757572,4505.51515106,94.7878787784,42.0,42.0,?
2017-08-07 13:37:04.456236,4593.60606015,3845.09090871,4195.90909049,4166.54545413,3933.18181779,585.212121154,4087.72727232,284.363636335,4328.81818139,403.878787838,4499.33333288,98.9090908992,4249.48484806,3692.60606024,4390.6363632,3132.12121181,5056.21212071,3247.51515119,4119.15151474,523.393939342,4412.78787835,3540.12121177,4170.15151473,4199.5151511,4845.51515103,3725.5757572,4512.72727228,94.7878787784,42.0,42.0,?
2017-08-07 13:37:04.460257,4598.24242378,3845.09090871,4205.18181776,4166.54545413,3941.93939355,585.212121154,4090.30302989,284.363636335,4329.84848442,403.878787838,4497.78787834,98.9090908992,4245.36363594,3692.60606024,4392.18181774,3132.12121181,5055.69696919,3247.51515119,4126.36363595,523.393939342,4417.42424198,3540.12121177,4172.21212079,4199.5151511,4850.66666618,3725.5757572,4519.42424197,94.7878787784,42.0,42.0,?
2017-08-07 13:37:04.469199,4603.90909045,3845.09090871,4207.24242382,4166.54545413,3943.48484809,585.212121154,4091.33333292,284.363636335,4333.45454502,403.878787838,4494.69696925,98.9090908992,4234.54545412,3692.60606024,4387.54545411,3132.12121181,5048.9999995,3247.51515119,4120.18181777,523.393939342,4415.87878744,3540.12121177,4170.66666625,4199.5151511,4851.69696921,3725.5757572,4515.81818137,94.7878787784,42.0,42.0,?
2017-08-07 13:37:04.474662,4605.45454499,3845.09090871,4208.27272685,4166.54545413,3943.48484809,585.212121154,4091.33333292,284.363636335,4336.54545411,403.878787838,4498.30302985,98.9090908992,4236.60606018,3692.60606024,4382.90909047,3132.12121181,5052.6060601,3247.51515119,4115.54545413,523.393939342,4414.84848441,3540.12121177,4170.66666625,4199.5151511,4853.24242376,3725.5757572,4519.42424197,94.7878787784,42.0,42.0,?
2017-08-07 13:37:04.485227,4600.30302984,3845.09090871,4209.30302988,4166.54545413,3946.06060567,585.212121154,4088.75757535,284.363636335,4332.93939351,403.878787838,4503.96969652,98.9090908992,4237.63636321,3692.60606024,4383.9393935,3132.12121181,5054.15151465,3247.51515119,4119.66666625,523.393939342,4415.36363592,3540.12121177,4170.15151473,4199.5151511,4853.75757527,3725.5757572,4525.09090864,94.7878787784,42.0,42.0,?
2017-08-07 13:37:04.492187,4595.15151469,3845.09090871,4207.24242382,4166.54545413,3944.51515112,585.212121154,4087.72727232,284.363636335,4331.39393896,403.878787838,4503.454545,98.9090908992,4231.96969655,3692.60606024,4382.90909047,3132.12121181,5045.9090904,3247.51515119,4118.12121171,523.393939342,4410.72727229,3540.12121177,4166.54545413,4199.5151511,4847.06060558,3725.5757572,4516.33333288,94.7878787784,42.0,42.0,?
2017-08-07 13:37:04.502020,4596.18181772,3845.09090871,4208.27272685,4166.54545413,3942.96969658,585.212121154,4090.81818141,284.363636335,4338.60606017,403.878787838,4506.54545409,98.9090908992,4233.51515109,3692.60606024,4379.30302987,3132.12121181,5043.33333283,3247.51515119,4115.03030262,523.393939342,4407.6363632,3540.12121177,4166.54545413,4199.5151511,4843.96969649,3725.5757572,4513.75757531,94.7878787784,42.0,42.0,?
2017-08-07 13:37:04.506759,4599.78787833,3845.09090871,4215.48484806,4166.54545413,3946.06060567,585.212121154,4090.30302989,284.363636335,4342.21212078,403.878787838,4511.18181773,98.9090908992,4241.75757533,3692.60606024,4391.15151471,3132.12121181,5055.18181768,3247.51515119,4121.2121208,523.393939342,4411.75757532,3540.12121177,4171.18181776,4199.5151511,4850.15151467,3725.5757572,4526.12121167,94.7878787784,42.0,42.0,?
2017-08-07 13:37:04.516808,4603.90909045,3845.09090871,4220.1212117,4166.54545413,3952.24242385,585.212121154,4086.69696929,284.363636335,4338.09090866,403.878787838,4499.33333288,98.9090908992,4241.24242382,3692.60606024,4399.39393895,3132.12121181,5060.33333283,3247.51515119,4128.42424201,523.393939342,4414.33333289,3540.12121177,4172.72727231,4199.5151511,4848.60606012,3725.5757572,4529.72727227,94.7878787784,42.0,42.0,?
2017-08-07 13:37:04.523139,4603.39393893,3845.09090871,4220.63636321,4166.54545413,3959.45454506,585.212121154,4085.66666626,284.363636335,4333.45454502,403.878787838,4494.18181773,98.9090908992,4232.99999958,3692.60606024,4387.03030259,3132.12121181,5053.63636313,3247.51515119,4126.87878747,523.393939342,4412.27272683,3540.12121177,4168.60606019,4199.5151511,4840.36363588,3725.5757572,4526.63636318,94.7878787784,42.0,42.0,?
2017-08-07 13:37:04.530648,4599.27272681,3845.09090871,4220.1212117,4166.54545413,3960.9999996,585.212121154,4084.63636323,284.363636335,4338.09090866,403.878787838,4510.1515147,98.9090908992,4231.96969655,3692.60606024,4380.84848441,3132.12121181,5050.03030253,3247.51515119,4121.2121208,523.393939342,4409.69696926,3540.12121177,4161.39393898,4199.5151511,4839.33333285,3725.5757572,4527.1515147,94.7878787784,42.0,42.0,?
2017-08-07 13:37:04.538407,4598.7575753,3845.09090871,4219.09090867,4166.54545413,3959.45454506,585.212121154,4082.57575717,284.363636335,4347.87878744,403.878787838,4516.8484844,98.9090908992,4234.54545412,3692.60606024,4386.51515108,3132.12121181,5051.06060556,3247.51515119,4116.57575716,523.393939342,4407.12121168,3540.12121177,4157.78787837,4199.5151511,4839.33333285,3725.5757572,4524.57575712,94.7878787784,42.0,42.0,?
2017-08-07 13:37:04.547443,4599.78787833,3845.09090871,4218.06060564,4166.54545413,3962.03030263,585.212121154,4082.57575717,284.363636335,4345.81818138,403.878787838,4507.57575713,98.9090908992,4232.48484806,3692.60606024,4383.42424199,3132.12121181,5047.45454495,3247.51515119,4116.57575716,523.393939342,4410.21212077,3540.12121177,4159.33333292,4199.5151511,4835.72727224,3725.5757572,4523.03030258,94.7878787784,42.0,42.0,?
2017-08-07 13:37:04.553711,4601.84848439,3845.09090871,4220.1212117,4166.54545413,3965.12121172,585.212121154,4081.54545414,284.363636335,4337.57575714,403.878787838,4508.09090864,98.9090908992,4231.96969655,3692.60606024,4380.84848441,3132.12121181,5045.39393889,3247.51515119,4118.12121171,523.393939342,4419.99999956,3540.12121177,4160.87878746,4199.5151511,4837.27272679,3725.5757572,4526.12121167,94.7878787784,42.0,42.0,?
2017-08-07 13:37:04.562366,4601.33333287,3845.09090871,4218.06060564,4166.54545413,3963.06060566,585.212121154,4076.9090905,284.363636335,4340.15151472,403.878787838,4512.72727228,98.9090908992,4236.60606018,3692.60606024,4390.12121168,3132.12121181,5047.96969646,3247.51515119,4117.09090868,523.393939342,4423.09090865,3540.12121177,4162.42424201,4199.5151511,4839.33333285,3725.5757572,4527.1515147,94.7878787784,42.0,42.0,?
2017-08-07 13:37:04.569526,4596.69696924,3845.09090871,4208.27272685,4166.54545413,3959.45454506,585.212121154,4074.84848444,284.363636335,4339.12121169,403.878787838,4504.48484803,98.9090908992,4237.1212117,3692.60606024,4391.66666623,3132.12121181,5047.96969646,3247.51515119,4117.09090868,523.393939342,4417.42424198,3540.12121177,4162.42424201,4199.5151511,4836.24242376,3725.5757572,4523.03030258,94.7878787784,42.0,42.0,?
2017-08-07 13:37:04.583511,4595.15151469,3853.33333295,4204.66666625,4166.54545413,3959.96969657,585.212121154,4074.33333293,284.363636335,4329.3333329,403.878787838,4495.72727228,98.9090908992,4231.45454503,3692.60606024,4381.87878744,3132.12121181,5041.27272677,3247.51515119,4118.63636322,523.393939342,4415.36363592,3540.12121177,4157.27272686,4199.5151511,4835.72727224,3725.5757572,4519.93939349,94.7878787784,42.0,42.0,?
2017-08-07 13:37:04.588572,4596.18181772,3853.33333295,4210.84848443,4158.30302989,3959.96969657,585.212121154,4070.21212081,284.363636335,4336.0303026,403.878787838,4494.69696925,98.9090908992,4230.424242,3692.60606024,4382.39393896,3132.12121181,5040.24242374,3247.51515119,4113.48484807,523.393939342,4413.81818138,3540.12121177,4156.24242383,4199.5151511,4837.27272679,3725.5757572,4521.99999955,94.7878787784,42.0,42.0,?
2017-08-07 13:37:04.599415,4596.18181772,3853.33333295,4210.84848443,4158.30302989,3959.96969657,585.212121154,4070.21212081,284.363636335,4336.0303026,403.878787838,4495.72727228,98.9090908992,4228.36363594,3692.60606024,4387.54545411,3132.12121181,5040.24242374,3247.51515119,4113.48484807,523.393939342,4411.2424238,3540.12121177,4156.24242383,4199.5151511,4833.15151467,3725.5757572,4517.87878743,94.7878787784,42.0,42.0,?
2017-08-07 13:37:04.611655,4591.03030257,3853.33333295,4205.18181776,4158.30302989,3955.84848445,585.212121154,4064.03030262,284.363636335,4320.57575714,403.878787838,4488.51515107,98.9090908992,4217.54545412,3692.60606024,4364.87878744,3132.12121181,5029.93939344,3247.51515119,4110.9090905,523.393939342,4415.87878744,3540.12121177,4147.48484807,4199.5151511,4837.27272679,3725.5757572,4513.24242379,94.7878787784,42.0,42.0,?
2017-08-07 13:37:04.614174,4591.03030257,3853.33333295,4205.18181776,4158.30302989,3955.84848445,585.212121154,4064.03030262,284.363636335,4320.57575714,403.878787838,4488.51515107,98.9090908992,4217.54545412,3692.60606024,4364.87878744,3132.12121181,5029.93939344,3247.51515119,4110.9090905,523.393939342,4415.87878744,3540.12121177,4147.48484807,4199.5151511,4837.27272679,3725.5757572,4513.24242379,94.7878787784,42.0,42.0,?
2017-08-07 13:37:04.618612,4591.03030257,3853.33333295,4205.18181776,4158.30302989,3955.84848445,585.212121154,4060.42424202,284.363636335,4320.57575714,399.757575718,4482.33333289,98.9090908992,4220.63636321,3692.60606024,4366.42424199,3132.12121181,5029.93939344,3247.51515119,4108.84848444,523.393939342,4412.78787835,3540.12121177,4147.48484807,4199.5151511,4835.21212073,3725.5757572,4513.75757531,94.7878787784,42.0,42.0,?
2017-08-07 13:37:04.627250,4582.78787833,3853.33333295,4203.63636322,4158.30302989,3948.12121173,585.212121154,4062.48484808,284.363636335,4316.96969654,399.757575718,4487.48484804,111.272727262,4222.18181776,3692.60606024,4375.18181774,3132.12121181,5034.57575707,3247.51515119,4106.78787838,523.393939342,4405.57575714,3540.12121177,4147.99999959,4199.5151511,4823.8787874,3725.5757572,4509.63636319,94.7878787784,42.0,42.0,?
2017-08-07 13:37:04.632311,4582.78787833,3853.33333295,4204.66666625,4158.30302989,3950.6969693,585.212121154,4061.96969656,284.363636335,4314.39393896,399.757575718,4495.21212076,111.272727262,4225.78787837,3700.84848448,4377.75757532,3132.12121181,5038.69696919,3247.51515119,4106.78787838,523.393939342,4403.51515107,3540.12121177,4141.8181814,4199.5151511,4818.21212073,3725.5757572,4509.12121167,94.7878787784,42.0,42.0,?
2017-08-07 13:37:04.640200,4588.454545,3853.33333295,4207.24242382,4158.30302989,3956.36363597,585.212121154,4059.39393899,284.363636335,4314.90909048,399.757575718,4492.63636319,111.272727262,4231.45454503,3700.84848448,4375.69696926,3136.24242393,5035.6060601,3247.51515119,4107.81818141,523.393939342,4407.6363632,3540.12121177,4139.24242383,4199.5151511,4823.8787874,3725.5757572,4510.66666622,94.7878787784,42.0,42.0,?
2017-08-07 13:37:04.649521,4588.454545,3853.33333295,4206.72727231,4158.30302989,3950.6969693,585.212121154,4057.33333293,284.363636335,4322.6363632,399.757575718,4491.60606016,111.272727262,4231.45454503,3700.84848448,4373.12121168,3136.24242393,5026.84848435,3259.87878755,4105.75757535,523.393939342,4409.18181774,3540.12121177,4141.8181814,4199.5151511,4830.06060558,3725.5757572,4510.1515147,94.7878787784,42.0,42.0,?
2017-08-07 13:37:04.655749,4583.30302984,3853.33333295,4202.09090867,4158.30302989,3939.36363597,585.212121154,4054.75757535,284.363636335,4329.84848442,399.757575718,4500.87878743,111.272727262,4234.54545412,3700.84848448,4374.15151471,3136.24242393,5023.24242374,3259.87878755,4100.6060602,515.1515151,4406.09090865,3540.12121177,4140.27272686,4199.5151511,4830.57575709,3725.5757572,4511.69696925,94.7878787784,42.0,42.0,?
2017-08-07 13:37:04.664482,4581.7575753,3853.33333295,4200.54545413,4158.30302989,3936.27272688,585.212121154,4051.15151475,284.363636335,4321.60606017,399.757575718,4496.24242379,111.272727262,4237.63636321,3700.84848448,4378.27272683,3136.24242393,5029.42424192,3259.87878755,4100.09090868,515.1515151,4404.54545411,3544.24242389,4138.2121208,4199.5151511,4828.51515103,3725.5757572,4508.09090864,94.7878787784,42.0,42.0,?
2017-08-07 13:37:04.672186,4584.33333287,3853.33333295,4202.60606019,4158.30302989,3941.93939355,585.212121154,4052.69696929,284.363636335,4310.27272684,399.757575718,4483.36363592,111.272727262,4234.54545412,3700.84848448,4384.45454502,3136.24242393,5034.57575707,3259.87878755,4106.78787838,515.1515151,4407.6363632,3544.24242389,4142.84848443,4199.5151511,4827.99999952,3725.5757572,4503.96969652,94.7878787784,42.0,42.0,?
2017-08-07 13:37:04.679519,4585.87878742,3853.33333295,4203.63636322,4158.30302989,3942.96969658,585.212121154,4054.75757535,284.363636335,4314.39393896,399.757575718,4487.99999955,111.272727262,4233.51515109,3700.84848448,4385.99999956,3136.24242393,5031.9999995,3259.87878755,4110.9090905,515.1515151,4406.60606017,3544.24242389,4143.87878746,4199.5151511,4825.93939346,3725.5757572,4507.06060561,94.7878787784,42.0,42.0,?
2017-08-07 13:37:04.686126,4583.30302984,3853.33333295,4201.06060564,4158.30302989,3939.87878748,585.212121154,4051.66666626,284.363636335,4316.96969654,399.757575718,4491.60606016,111.272727262,4227.84848443,3700.84848448,4373.6363632,3136.24242393,5028.39393889,3259.87878755,4103.69696929,523.393939342,4402.99999956,3544.24242389,4136.66666625,4199.5151511,4821.30302982,3725.5757572,4506.03030258,94.7878787784,42.0,42.0,?
2017-08-07 13:37:04.695104,4583.30302984,3853.33333295,4201.57575716,4158.30302989,3939.87878748,585.212121154,4046.51515111,284.363636335,4312.3333329,399.757575718,4481.30302985,111.272727262,4220.63636321,3700.84848448,4363.3333329,3136.24242393,5025.3030298,3259.87878755,4096.48484808,523.393939342,4405.06060562,3556.60606025,4133.57575716,4199.5151511,4822.33333285,3725.5757572,4504.48484803,94.7878787784,42.0,42.0,?
2017-08-07 13:37:04.702585,4583.81818136,3853.33333295,4204.66666625,4158.30302989,3939.87878748,585.212121154,4046.51515111,284.363636335,4314.90909048,399.757575718,4480.78787834,111.272727262,4222.69696927,3700.84848448,4371.06060562,3136.24242393,5022.21212071,3259.87878755,4099.57575717,523.393939342,4407.12121168,3556.60606025,4137.69696928,4195.39393897,4828.51515103,3725.5757572,4507.06060561,94.7878787784,42.0,42.0,?
2017-08-07 13:37:04.710481,4582.78787833,3853.33333295,4198.48484806,4158.30302989,3932.15151476,585.212121154,4047.03030263,284.363636335,4315.42424199,399.757575718,4487.99999955,111.272727262,4224.75757534,3700.84848448,4377.2424238,3136.24242393,5024.78787829,3259.87878755,4102.15151474,523.393939342,4406.60606017,3556.60606025,4141.8181814,4195.39393897,4830.57575709,3725.5757572,4502.93939349,94.7878787784,42.0,42.0,?
2017-08-07 13:37:04.722688,4579.18181772,3853.33333295,4187.66666625,4158.30302989,3923.393939,585.212121154,4040.33333293,284.363636335,4308.21212078,399.757575718,4483.36363592,111.272727262,4220.63636321,3700.84848448,4367.45454502,3136.24242393,5027.87878738,3259.87878755,4095.45454505,523.393939342,4401.45454501,3556.60606025,4138.72727231,4195.39393897,4824.90909043,3725.5757572,4493.66666622,94.7878787784,42.0,42.0,?
2017-08-07 13:37:04.726819,4578.15151469,3853.33333295,4191.78787837,4158.30302989,3922.87878749,585.212121154,4032.09090869,284.363636335,4304.60606018,399.757575718,4478.72727228,111.272727262,4219.60606018,3700.84848448,4361.78787835,3136.24242393,5022.72727222,3259.87878755,4095.45454505,523.393939342,4396.30302986,3556.60606025,4135.12121171,4195.39393897,4821.81818134,3725.5757572,4494.69696925,94.7878787784,42.0,42.0,?
2017-08-07 13:37:04.733019,4584.33333287,3853.33333295,4204.15151473,4158.30302989,3928.03030264,585.212121154,4035.18181778,284.363636335,4305.12121169,399.757575718,4480.78787834,111.272727262,4219.60606018,3700.84848448,4365.39393896,3136.24242393,5018.6060601,3259.87878755,4104.72727232,523.393939342,4403.51515107,3556.60606025,4138.72727231,4195.39393897,4831.09090861,3725.5757572,4499.33333288,94.7878787784,42.0,42.0,?
2017-08-07 13:37:04.743615,4579.69696924,3853.33333295,4200.54545413,4158.30302989,3926.99999961,585.212121154,4035.18181778,284.363636335,4316.96969654,399.757575718,4484.39393895,111.272727262,4219.60606018,3700.84848448,4368.48484805,3136.24242393,5023.75757526,3259.87878755,4108.84848444,523.393939342,4405.06060562,3556.60606025,4146.96969656,4195.39393897,4833.15151467,3725.5757572,4496.75757531,94.7878787784,42.0,42.0,?
2017-08-07 13:37:04.751337,4579.69696924,3853.33333295,4200.54545413,4158.30302989,3926.99999961,585.212121154,4035.18181778,284.363636335,4316.96969654,399.757575718,4484.39393895,111.272727262,4219.60606018,3700.84848448,4368.48484805,3136.24242393,5023.75757526,3259.87878755,4108.84848444,523.393939342,4405.06060562,3556.60606025,4146.96969656,4195.39393897,4833.15151467,3725.5757572,4496.75757531,94.7878787784,42.0,42.0,?
2017-08-07 13:37:04.756798,4571.454545,3853.33333295,4201.57575716,4158.30302989,3925.96969658,585.212121154,4032.09090869,284.363636335,4308.7272723,399.757575718,4478.72727228,111.272727262,4214.45454503,3700.84848448,4364.87878744,3136.24242393,5022.72727222,3259.87878755,4100.09090868,523.393939342,4398.36363592,3556.60606025,4138.2121208,4195.39393897,4822.84848437,3725.5757572,4495.72727228,94.7878787784,42.0,42.0,?
2017-08-07 13:37:04.771606,4572.99999954,3853.33333295,4202.60606019,4158.30302989,3933.18181779,585.212121154,4035.18181778,284.363636335,4301.51515109,399.757575718,4475.63636319,111.272727262,4206.72727231,3700.84848448,4361.78787835,3136.24242393,5023.75757526,3259.87878755,4099.57575717,523.393939342,4398.36363592,3556.60606025,4135.12121171,4195.39393897,4822.33333285,3725.5757572,4492.63636319,94.7878787784,42.0,42.0,?
2017-08-07 13:37:04.774212,4579.18181772,3853.33333295,4204.15151473,4158.30302989,3935.24242385,585.212121154,4036.72727232,284.363636335,4310.78787836,399.757575718,4480.27272682,111.272727262,4213.424242,3700.84848448,4366.42424199,3136.24242393,5020.15151465,3259.87878755,4107.81818141,523.393939342,4401.96969653,3556.60606025,4144.39393898,4195.39393897,4827.99999952,3725.5757572,4495.21212076,94.7878787784,42.0,42.0,?
2017-08-07 13:37:04.780542,4580.72727227,3853.33333295,4206.21212079,4158.30302989,3933.18181779,585.212121154,4036.72727232,284.363636335,4315.93939351,399.757575718,4481.30302985,111.272727262,4222.69696927,3700.84848448,4369.51515108,3136.24242393,5016.54545404,3259.87878755,4111.42424201,523.393939342,4406.60606017,3556.60606025,4151.09090868,4195.39393897,4832.63636315,3725.5757572,4505.51515106,94.7878787784,42.0,42.0,?
2017-08-07 13:37:04.788420,4581.24242378,3853.33333295,4204.66666625,4158.30302989,3936.27272688,585.212121154,4035.18181778,284.363636335,4309.75757533,399.757575718,4479.24242379,111.272727262,4223.21212079,3700.84848448,4367.45454502,3136.24242393,5024.78787829,3259.87878755,4110.9090905,523.393939342,4409.18181774,3556.60606025,4149.54545413,4195.39393897,4835.21212073,3725.5757572,4508.60606016,94.7878787784,42.0,42.0,?
2017-08-07 13:37:04.796679,4580.21212075,3853.33333295,4203.1212117,4158.30302989,3937.81818142,585.212121154,4033.63636323,284.363636335,4313.36363593,399.757575718,4482.33333289,111.272727262,4220.1212117,3700.84848448,4365.39393896,3136.24242393,5029.93939344,3259.87878755,4110.39393898,523.393939342,4404.03030259,3556.60606025,4147.99999959,4195.39393897,4834.1818177,3725.5757572,4498.81818137,94.7878787784,42.0,42.0,?
2017-08-07 13:37:04.803475,4576.60606015,3853.33333295,4203.1212117,4158.30302989,3930.0909087,585.212121154,4032.6060602,284.363636335,4320.06060563,399.757575718,4482.33333289,111.272727262,4219.09090867,3700.84848448,4361.78787835,3136.24242393,5020.66666616,3259.87878755,4105.75757535,523.393939342,4397.84848441,3556.60606025,4146.45454504,4195.39393897,4829.03030255,3725.5757572,4493.66666622,94.7878787784,42.0,42.0,?
2017-08-07 13:37:04.812225,4576.09090863,3853.33333295,4202.09090867,4158.30302989,3925.96969658,585.212121154,4030.54545414,284.363636335,4313.87878745,399.757575718,4480.27272682,111.272727262,4219.09090867,3700.84848448,4365.90909047,3136.24242393,5020.15151465,3259.87878755,4104.72727232,523.393939342,4402.48484804,3556.60606025,4147.48484807,4195.39393897,4827.484848,3725.5757572,4497.27272682,94.7878787784,42.0,42.0,?
2017-08-07 13:37:04.818471,4579.69696924,3853.33333295,4201.06060564,4158.30302989,3929.06060567,585.212121154,4030.03030263,284.363636335,4311.30302987,399.757575718,4490.06060561,111.272727262,4222.18181776,3700.84848448,4374.66666623,3136.24242393,5027.87878738,3259.87878755,4109.87878747,523.393939342,4404.03030259,3556.60606025,4150.06060565,4195.39393897,4831.60606012,3725.5757572,4498.30302985,94.7878787784,42.0,42.0,?
2017-08-07 13:37:04.827089,4578.66666621,3853.33333295,4203.1212117,4158.30302989,3928.54545415,585.212121154,4032.09090869,284.363636335,4314.90909048,399.757575718,4492.12121167,111.272727262,4222.69696927,3700.84848448,4372.09090865,3136.24242393,5025.81818132,3259.87878755,4109.36363595,523.393939342,4398.36363592,3556.60606025,4147.99999959,4195.39393897,4830.57575709,3725.5757572,4495.72727228,94.7878787784,42.0,42.0,?
2017-08-07 13:37:04.834456,4575.0606056,3853.33333295,4203.63636322,4158.30302989,3926.99999961,585.212121154,4030.54545414,284.363636335,4314.90909048,399.757575718,4483.36363592,111.272727262,4222.18181776,3700.84848448,4371.57575714,3136.24242393,5022.21212071,3259.87878755,4107.30302989,523.393939342,4399.39393895,3556.60606025,4146.96969656,4195.39393897,4830.57575709,3725.5757572,4494.18181773,94.7878787784,42.0,42.0,?
2017-08-07 13:37:04.842436,4574.54545409,3853.33333295,4202.09090867,4158.30302989,3930.60606021,585.212121154,4029.51515111,284.363636335,4315.42424199,399.757575718,4488.51515107,111.272727262,4223.7272723,3700.84848448,4380.84848441,3136.24242393,5026.84848435,3259.87878755,4111.93939353,523.393939342,4406.60606017,3556.60606025,4154.69696928,4195.39393897,4838.30302982,3725.5757572,4496.75757531,94.7878787784,42.0,42.0,?
2017-08-07 13:37:04.850995,4576.60606015,3853.33333295,4202.09090867,4158.30302989,3929.57575718,585.212121154,4031.57575717,284.363636335,4317.99999957,399.757575718,4492.63636319,111.272727262,4222.18181776,3700.84848448,4379.30302987,3136.24242393,5033.03030253,3259.87878755,4112.96969656,523.393939342,4407.12121168,3556.60606025,4158.8181814,4195.39393897,4839.33333285,3725.5757572,4500.36363591,94.7878787784,42.0,42.0,?
2017-08-07 13:37:04.859301,4578.15151469,3853.33333295,4202.60606019,4158.30302989,3928.03030264,585.212121154,4028.48484808,284.363636335,4314.39393896,399.757575718,4481.30302985,111.272727262,4219.60606018,3700.84848448,4366.9393935,3136.24242393,5033.03030253,3259.87878755,4106.78787838,523.393939342,4401.45454501,3556.60606025,4152.63636322,4195.39393897,4833.15151467,3725.5757572,4495.21212076,94.7878787784,42.0,42.0,?
2017-08-07 13:37:04.868605,4579.18181772,3853.33333295,4204.15151473,4158.30302989,3930.0909087,585.212121154,4025.90909051,284.363636335,4312.3333329,399.757575718,4475.63636319,111.272727262,4219.09090867,3700.84848448,4360.75757532,3136.24242393,5026.84848435,3259.87878755,4107.81818141,523.393939342,4400.9393935,3556.60606025,4147.99999959,4195.39393897,4833.66666618,3725.5757572,4495.21212076,94.7878787784,42.0,42.0,?
2017-08-07 13:37:04.873529,4582.27272681,3853.33333295,4205.69696928,4158.30302989,3931.12121173,585.212121154,4027.96969657,284.363636335,4314.39393896,399.757575718,4482.8484844,111.272727262,4214.96969655,3700.84848448,4358.69696926,3136.24242393,5017.57575707,3259.87878755,4110.9090905,523.393939342,4406.60606017,3556.60606025,4148.5151511,4195.39393897,4838.30302982,3725.5757572,4510.66666622,94.7878787784,42.0,42.0,?
2017-08-07 13:37:04.881383,4585.36363591,3853.33333295,4202.60606019,4158.30302989,3931.12121173,585.212121154,4026.93939354,284.363636335,4306.66666624,399.757575718,4480.27272682,111.272727262,4209.30302988,3700.84848448,4358.69696926,3136.24242393,5017.06060556,3259.87878755,4107.81818141,523.393939342,4407.12121168,3556.60606025,4149.03030262,4195.39393897,4842.42424194,3725.5757572,4513.24242379,94.7878787784,42.0,42.0,?
2017-08-07 13:37:04.889869,4584.84848439,3853.33333295,4201.06060564,4158.30302989,3931.12121173,585.212121154,4023.84848445,284.363636335,4301.51515109,399.757575718,4478.21212076,111.272727262,4214.45454503,3700.84848448,4363.3333329,3136.24242393,5023.24242374,3259.87878755,4112.96969656,523.393939342,4405.06060562,3556.60606025,4153.66666625,4195.39393897,4846.03030255,3725.5757572,4499.33333288,94.7878787784,42.0,42.0,?
2017-08-07 13:37:04.897999,4581.24242378,3853.33333295,4203.1212117,4158.30302989,3924.42424203,585.212121154,4021.27272687,284.363636335,4308.7272723,399.757575718,4490.06060561,111.272727262,4224.24242382,3700.84848448,4366.42424199,3136.24242393,5019.12121162,3259.87878755,4122.24242383,523.393939342,4406.09090865,3556.60606025,4159.33333292,4195.39393897,4843.96969649,3725.5757572,4502.42424197,94.7878787784,42.0,42.0,?
2017-08-07 13:37:04.909730,4579.69696924,3853.33333295,4203.63636322,4158.30302989,3922.36363597,585.212121154,4019.21212081,284.363636335,4315.42424199,399.757575718,4495.72727228,111.272727262,4226.30302988,3700.84848448,4366.42424199,3136.24242393,5014.48484798,3259.87878755,4118.63636322,523.393939342,4404.54545411,3556.60606025,4160.87878746,4195.39393897,4838.30302982,3725.5757572,4510.1515147,94.7878787784,42.0,42.0,?
2017-08-07 13:37:04.912438,4578.15151469,3853.33333295,4201.06060564,4158.30302989,3925.96969658,585.212121154,4018.18181778,284.363636335,4313.87878745,399.757575718,4485.93939349,111.272727262,4220.1212117,3700.84848448,4366.42424199,3136.24242393,5021.69696919,3259.87878755,4107.81818141,523.393939342,4399.90909047,3556.60606025,4159.33333292,4195.39393897,4833.66666618,3725.5757572,4500.87878743,94.7878787784,42.0,42.0,?
2017-08-07 13:37:04.924922,4575.0606056,3853.33333295,4201.06060564,4158.30302989,3921.84848446,585.212121154,4015.6060602,284.363636335,4313.87878745,399.757575718,4479.75757531,111.272727262,4216.51515109,3700.84848448,4366.42424199,3136.24242393,5025.81818132,3259.87878755,4109.36363595,523.393939342,4401.45454501,3556.60606025,4158.30302989,4195.39393897,4832.12121164,3725.5757572,4493.1515147,94.7878787784,42.0,42.0,?
2017-08-07 13:37:04.929408,4579.69696924,3853.33333295,4203.1212117,4158.30302989,3920.81818143,585.212121154,4015.6060602,284.363636335,4316.96969654,399.757575718,4485.42424198,111.272727262,4223.21212079,3700.84848448,4370.54545411,3136.24242393,5024.27272677,3259.87878755,4120.69696928,523.393939342,4411.2424238,3556.60606025,4160.36363595,4195.39393897,4839.33333285,3725.5757572,4499.8484844,94.7878787784,42.0,42.0,?
2017-08-07 13:37:04.938530,4584.84848439,3853.33333295,4204.15151473,4158.30302989,3926.99999961,585.212121154,4021.78787839,284.363636335,4314.39393896,399.757575718,4485.93939349,111.272727262,4227.84848443,3700.84848448,4375.18181774,3136.24242393,5028.90909041,3259.87878755,4126.36363595,523.393939342,4416.39393895,3556.60606025,4165.5151511,4195.39393897,4844.484848,3725.5757572,4504.48484803,94.7878787784,42.0,42.0,?
2017-08-07 13:37:04.944942,4578.15151469,3853.33333295,4204.15151473,4158.30302989,3931.12121173,585.212121154,4022.3030299,284.363636335,4311.81818139,399.757575718,4477.69696925,111.272727262,4222.69696927,3700.84848448,4374.15151471,3136.24242393,5031.9999995,3259.87878755,4123.78787838,523.393939342,4409.18181774,3556.60606025,4164.48484807,4195.39393897,4835.72727224,3725.5757572,4500.87878743,94.7878787784,42.0,42.0,?
2017-08-07 13:37:04.952931,4572.99999954,3853.33333295,4204.66666625,4158.30302989,3932.66666627,585.212121154,4018.6969693,284.363636335,4317.48484805,399.757575718,4478.72727228,111.272727262,4219.60606018,3700.84848448,4373.6363632,3136.24242393,5028.39393889,3259.87878755,4123.27272686,523.393939342,4405.06060562,3556.60606025,4162.93939352,4195.39393897,4830.57575709,3725.5757572,4497.27272682,94.7878787784,42.0,42.0,?
2017-08-07 13:37:04.961560,4576.09090863,3853.33333295,4204.15151473,4158.30302989,3931.63636324,585.212121154,4019.72727233,284.363636335,4321.09090866,399.757575718,4490.57575713,111.272727262,4224.24242382,3700.84848448,4375.69696926,3136.24242393,5029.42424192,3259.87878755,4123.78787838,523.393939342,4408.15151471,3556.60606025,4166.03030261,4195.39393897,4835.21212073,3725.5757572,4495.21212076,94.7878787784,42.0,42.0,?
2017-08-07 13:37:04.967986,4578.15151469,3853.33333295,4203.1212117,4158.30302989,3926.99999961,585.212121154,4018.18181778,284.363636335,4314.90909048,399.757575718,4494.18181773,111.272727262,4226.8181814,3700.84848448,4374.66666623,3136.24242393,5030.45454495,3259.87878755,4120.69696928,523.393939342,4407.6363632,3556.60606025,4169.1212117,4195.39393897,4835.21212073,3725.5757572,4496.24242379,94.7878787784,42.0,42.0,?
2017-08-07 13:37:04.975414,4578.66666621,3853.33333295,4204.66666625,4158.30302989,3926.48484809,585.212121154,4014.06060566,284.363636335,4310.78787836,399.757575718,4487.48484804,111.272727262,4221.66666624,3700.84848448,4371.06060562,3136.24242393,5028.39393889,3259.87878755,4121.2121208,523.393939342,4405.57575714,3556.60606025,4172.21212079,4195.39393897,4838.30302982,3725.5757572,4500.87878743,94.7878787784,42.0,42.0,?
2017-08-07 13:37:04.985446,4579.18181772,3853.33333295,4206.72727231,4158.30302989,3931.63636324,585.212121154,4019.21212081,284.363636335,4319.0303026,399.757575718,4491.09090864,111.272727262,4223.7272723,3700.84848448,4374.15151471,3136.24242393,5032.51515101,3259.87878755,4126.87878747,523.393939342,4405.57575714,3556.60606025,4181.99999958,4195.39393897,4844.99999952,3725.5757572,4503.96969652,94.7878787784,42.0,42.0,?
2017-08-07 13:37:04.991089,4581.24242378,3853.33333295,4207.24242382,4158.30302989,3934.72727233,585.212121154,4022.81818142,284.363636335,4327.27272684,399.757575718,4501.90909046,111.272727262,4235.57575715,3700.84848448,4384.96969653,3136.24242393,5038.18181768,3259.87878755,4125.84848444,523.393939342,4408.15151471,3556.60606025,4194.36363594,4195.39393897,4846.03030255,3725.5757572,4502.42424197,94.7878787784,42.0,42.0,?
2017-08-07 13:37:04.999794,4584.84848439,3853.33333295,4207.75757534,4158.30302989,3934.72727233,585.212121154,4018.6969693,284.363636335,4323.15151472,399.757575718,4499.33333288,111.272727262,4242.27272685,3700.84848448,4392.69696926,3136.24242393,5037.66666616,3259.87878755,4125.33333292,523.393939342,4411.2424238,3556.60606025,4200.03030261,4195.39393897,4844.484848,3725.5757572,4506.03030258,94.7878787784,42.0,42.0,?
2017-08-07 13:37:05.007651,4584.84848439,3853.33333295,4206.21212079,4158.30302989,3931.63636324,585.212121154,4019.21212081,284.363636335,4321.60606017,399.757575718,4490.57575713,111.272727262,4239.18181776,3700.84848448,4388.57575714,3136.24242393,5035.6060601,3259.87878755,4127.9090905,523.393939342,4409.69696926,3556.60606025,4203.63636322,4195.39393897,4847.06060558,3725.5757572,4512.21212076,94.7878787784,42.0,42.0,?
2017-08-07 13:37:05.014790,4578.15151469,3853.33333295,4204.66666625,4158.30302989,3929.57575718,585.212121154,4018.6969693,284.363636335,4329.3333329,399.757575718,4494.18181773,111.272727262,4231.96969655,3700.84848448,4382.90909047,3136.24242393,5035.6060601,3259.87878755,4127.39393898,523.393939342,4407.12121168,3556.60606025,4205.69696928,4195.39393897,4846.54545406,3725.5757572,4505.51515106,94.7878787784,42.0,42.0,?
2017-08-07 13:37:05.026195,4571.454545,3853.33333295,4199.5151511,4158.30302989,3929.06060567,585.212121154,4013.03030263,284.363636335,4327.78787836,399.757575718,4492.12121167,111.272727262,4223.7272723,3700.84848448,4379.30302987,3136.24242393,5031.48484798,3259.87878755,4118.63636322,523.393939342,4401.96969653,3556.60606025,4200.54545413,4195.39393897,4839.33333285,3725.5757572,4496.75757531,94.7878787784,42.0,42.0,?
2017-08-07 13:37:05.031077,4570.93939348,3853.33333295,4193.33333291,4158.30302989,3925.45454506,585.212121154,4011.9999996,284.363636335,4315.93939351,399.757575718,4482.33333289,111.272727262,4217.03030261,3700.84848448,4371.06060562,3136.24242393,5024.27272677,3259.87878755,4110.39393898,523.393939342,4396.81818138,3556.60606025,4195.39393897,4195.39393897,4835.21212073,3725.5757572,4495.72727228,94.7878787784,42.0,42.0,?
2017-08-07 13:37:05.042782,4569.90909045,3853.33333295,4195.39393897,4158.30302989,3924.42424203,585.212121154,4012.51515111,284.363636335,4314.39393896,399.757575718,4484.39393895,111.272727262,4219.09090867,3700.84848448,4367.45454502,3136.24242393,5022.21212071,3259.87878755,4111.93939353,523.393939342,4398.36363592,3556.60606025,4198.48484806,4195.39393897,4835.21212073,3725.5757572,4495.21212076,94.7878787784,42.0,42.0,?
2017-08-07 13:37:05.053422,4568.36363591,3853.33333295,4202.60606019,4158.30302989,3927.51515112,585.212121154,4008.39393899,284.363636335,4320.06060563,399.757575718,4494.69696925,111.272727262,4222.69696927,3700.84848448,4374.15151471,3136.24242393,5026.33333283,3259.87878755,4117.09090868,523.393939342,4400.42424198,3556.60606025,4204.15151473,4195.39393897,4833.66666618,3725.5757572,4495.21212076,94.7878787784,42.0,42.0,?
2017-08-07 13:37:05.058154,4572.99999954,3853.33333295,4203.1212117,4158.30302989,3926.48484809,585.212121154,4008.39393899,284.363636335,4323.66666623,399.757575718,4495.21212076,111.272727262,4224.24242382,3700.84848448,4374.66666623,3136.24242393,5027.87878738,3259.87878755,4119.15151474,523.393939342,4399.90909047,3556.60606025,4206.72727231,4195.39393897,4834.69696921,3725.5757572,4496.75757531,94.7878787784,42.0,42.0,?
2017-08-07 13:37:05.062518,4579.69696924,3853.33333295,4202.09090867,4158.30302989,3927.51515112,585.212121154,4010.96969657,284.363636335,4325.72727229,399.757575718,4492.12121167,111.272727262,4223.7272723,3700.84848448,4368.48484805,3136.24242393,5024.27272677,3259.87878755,4121.72727232,523.393939342,4400.9393935,3556.60606025,4209.8181814,4195.39393897,4839.33333285,3725.5757572,4497.78787834,94.7878787784,42.0,42.0,?
2017-08-07 13:37:05.069287,4580.21212075,3853.33333295,4206.21212079,4158.30302989,3934.21212082,585.212121154,4010.96969657,284.363636335,4326.75757532,399.757575718,4494.18181773,111.272727262,4227.33333291,3700.84848448,4368.99999956,3136.24242393,5022.72727222,3259.87878755,4128.93939353,523.393939342,4407.6363632,3556.60606025,4212.90909049,4195.39393897,4842.93939346,3725.5757572,4503.96969652,94.7878787784,42.0,42.0,?
2017-08-07 13:37:05.076939,4579.18181772,3853.33333295,4204.66666625,4158.30302989,3934.21212082,585.212121154,4010.96969657,284.363636335,4328.30302987,399.757575718,4496.24242379,111.272727262,4234.54545412,3700.84848448,4376.72727229,3136.24242393,5029.42424192,3259.87878755,4131.5151511,523.393939342,4409.18181774,3556.60606025,4213.93939352,4195.39393897,4844.484848,3725.5757572,4509.63636319,94.7878787784,42.0,42.0,?
2017-08-07 13:37:05.084274,4584.33333287,3840.96969659,4204.15151473,4158.30302989,3934.72727233,585.212121154,4014.57575717,284.363636335,4330.36363593,399.757575718,4498.30302985,111.272727262,4241.24242382,3700.84848448,4384.45454502,3136.24242393,5039.72727222,3259.87878755,4132.54545413,523.393939342,4410.72727229,3556.60606025,4218.57575715,4195.39393897,4852.72727224,3725.5757572,4513.24242379,94.7878787784,42.0,42.0,?
2017-08-07 13:37:05.093760,4593.09090863,3840.96969659,4213.93939352,4154.18181777,3941.42424203,585.212121154,4017.15151475,284.363636335,4329.3333329,399.757575718,4498.30302985,111.272727262,4245.36363594,3700.84848448,4385.99999956,3136.24242393,5039.21212071,3259.87878755,4141.8181814,523.393939342,4423.09090865,3556.60606025,4229.39393897,4195.39393897,4863.54545406,3725.5757572,4518.90909046,94.7878787784,42.0,42.0,?
2017-08-07 13:37:05.101026,4592.57575712,3840.96969659,4216.51515109,4154.18181777,3940.393939,585.212121154,4015.6060602,284.363636335,4329.3333329,399.757575718,4495.21212076,111.272727262,4237.63636321,3700.84848448,4379.81818138,3136.24242393,5028.90909041,3259.87878755,4142.84848443,523.393939342,4426.69696925,3556.60606025,4231.96969655,4195.39393897,4863.03030254,3725.5757572,4520.96969652,90.6666666576,42.0,42.0,?
2017-08-07 13:37:05.108885,4581.24242378,3840.96969659,4206.21212079,4154.18181777,3935.75757536,576.969696912,4011.48484808,284.363636335,4328.81818139,399.757575718,4494.18181773,111.272727262,4223.21212079,3700.84848448,4371.57575714,3136.24242393,5025.3030298,3259.87878755,4130.48484807,523.393939342,4413.30302986,3556.60606025,4218.06060564,4195.39393897,4853.75757527,3725.5757572,4514.27272682,90.6666666576,42.0,42.0,?
2017-08-07 13:37:05.120360,4574.03030257,3840.96969659,4200.54545413,4154.18181777,3933.6969693,576.969696912,4008.90909051,292.606060577,4330.36363593,399.757575718,4495.72727228,111.272727262,4220.63636321,3700.84848448,4364.36363593,3136.24242393,5023.75757526,3259.87878755,4119.15151474,523.393939342,4401.96969653,3556.60606025,4203.1212117,4195.39393897,4842.93939346,3725.5757572,4503.454545,90.6666666576,42.0,42.0,?
2017-08-07 13:37:05.126066,4572.48484803,3840.96969659,4203.1212117,4154.18181777,3930.60606021,576.969696912,4007.87878748,292.606060577,4332.42424199,399.757575718,4496.75757531,111.272727262,4220.1212117,3700.84848448,4360.24242381,3136.24242393,5012.42424192,3259.87878755,4111.93939353,523.393939342,4399.39393895,3556.60606025,4200.03030261,4195.39393897,4834.69696921,3725.5757572,4495.72727228,90.6666666576,42.0,42.0,?
2017-08-07 13:37:05.134927,4573.51515106,3840.96969659,4202.60606019,4154.18181777,3932.66666627,576.969696912,4007.87878748,292.606060577,4331.39393896,399.757575718,4496.24242379,98.9090908992,4219.09090867,3700.84848448,4361.78787835,3136.24242393,5012.42424192,3259.87878755,4110.9090905,523.393939342,4399.39393895,3556.60606025,4204.66666625,4195.39393897,4835.72727224,3725.5757572,4498.81818137,90.6666666576,42.0,42.0,?
2017-08-07 13:37:05.140354,4579.18181772,3840.96969659,4202.60606019,4154.18181777,3943.99999961,576.969696912,4011.48484808,292.606060577,4328.81818139,399.757575718,4497.78787834,98.9090908992,4230.424242,3704.9696966,4372.09090865,3136.24242393,5029.42424192,3259.87878755,4125.84848444,523.393939342,4402.48484804,3556.60606025,4211.87878746,4195.39393897,4844.99999952,3725.5757572,4507.57575713,90.6666666576,42.0,42.0,?
2017-08-07 13:37:05.150917,4587.93939348,3840.96969659,4205.18181776,4154.18181777,3946.57575718,576.969696912,4013.03030263,292.606060577,4330.87878745,399.757575718,4500.36363591,98.9090908992,4240.21212079,3704.9696966,4382.90909047,3132.12121181,5037.15151465,3259.87878755,4142.33333292,523.393939342,4413.30302986,3556.60606025,4221.66666624,4195.39393897,4851.1818177,3725.5757572,4514.27272682,90.6666666576,42.0,42.0,?
2017-08-07 13:37:05.156128,4589.99999954,3840.96969659,4210.33333291,4154.18181777,3940.90909052,576.969696912,4011.48484808,292.606060577,4332.42424199,399.757575718,4499.33333288,98.9090908992,4230.93939352,3704.9696966,4383.9393935,3132.12121181,5033.54545404,3255.75757543,4142.33333292,523.393939342,4418.45454501,3556.60606025,4229.39393897,4195.39393897,4851.69696921,3725.5757572,4520.454545,90.6666666576,42.0,42.0,?
2017-08-07 13:37:05.164256,4587.93939348,3840.96969659,4214.96969655,4154.18181777,3946.57575718,576.969696912,4009.93939354,292.606060577,4329.84848442,399.757575718,4495.72727228,98.9090908992,4225.27272685,3704.9696966,4378.78787835,3132.12121181,5035.09090859,3255.75757543,4140.27272686,523.393939342,4410.21212077,3556.60606025,4227.84848443,4195.39393897,4849.63636315,3725.5757572,4523.03030258,90.6666666576,42.0,42.0,?
2017-08-07 13:37:05.174194,4589.99999954,3840.96969659,4211.87878746,4154.18181777,3955.33333294,576.969696912,4005.3030299,292.606060577,4333.96969654,399.757575718,4497.27272682,98.9090908992,4232.48484806,3704.9696966,4380.84848441,3132.12121181,5037.66666616,3255.75757543,4143.36363595,523.393939342,4408.15151471,3552.48484813,4226.30302988,4195.39393897,4849.12121164,3725.5757572,4520.454545,90.6666666576,42.0,42.0,?
2017-08-07 13:37:05.180264,4591.54545409,3840.96969659,4207.75757534,4154.18181777,3952.75757536,576.969696912,4000.15151475,292.606060577,4341.69696926,399.757575718,4500.36363591,98.9090908992,4235.06060564,3704.9696966,4387.54545411,3132.12121181,5035.09090859,3255.75757543,4144.90909049,523.393939342,4415.87878744,3552.48484813,4230.93939352,4187.15151473,4852.72727224,3725.5757572,4524.06060561,90.6666666576,42.0,42.0,?
2017-08-07 13:37:05.188247,4586.39393894,3840.96969659,4207.75757534,4154.18181777,3946.57575718,576.969696912,3999.12121172,292.606060577,4338.09090866,399.757575718,4497.27272682,98.9090908992,4226.30302988,3704.9696966,4380.3333329,3132.12121181,5029.93939344,3255.75757543,4141.30302989,523.393939342,4415.87878744,3552.48484813,4228.36363594,4187.15151473,4853.75757527,3733.81818144,4525.09090864,90.6666666576,42.0,42.0,?
2017-08-07 13:37:05.196537,4582.78787833,3840.96969659,4205.69696928,4154.18181777,3947.60606021,576.969696912,4000.15151475,292.606060577,4328.30302987,399.757575718,4494.69696925,98.9090908992,4220.63636321,3704.9696966,4371.06060562,3132.12121181,5027.87878738,3255.75757543,4137.18181777,515.1515151,4408.66666623,3552.48484813,4221.15151473,4187.15151473,4849.63636315,3733.81818144,4512.21212076,90.6666666576,42.0,42.0,?
2017-08-07 13:37:05.205654,4585.36363591,3840.96969659,4203.1212117,4154.18181777,3948.63636324,576.969696912,3999.12121172,292.606060577,4329.3333329,399.757575718,4494.18181773,98.9090908992,4228.87878746,3704.9696966,4377.75757532,3132.12121181,5030.96969647,3255.75757543,4138.2121208,515.1515151,4404.54545411,3544.24242389,4226.30302988,4187.15151473,4846.54545406,3733.81818144,4506.03030258,90.6666666576,42.0,42.0,?
2017-08-07 13:37:05.213559,4582.78787833,3840.96969659,4204.15151473,4154.18181777,3941.42424203,576.969696912,3996.54545415,292.606060577,4336.0303026,399.757575718,4494.69696925,98.9090908992,4243.30302988,3704.9696966,4390.12121168,3132.12121181,5033.54545404,3255.75757543,4139.75757534,515.1515151,4406.60606017,3544.24242389,4235.06060564,4187.15151473,4848.60606012,3733.81818144,4512.72727228,90.6666666576,42.0,42.0,?
2017-08-07 13:37:05.219204,4578.15151469,3840.96969659,4202.60606019,4154.18181777,3938.84848445,576.969696912,3994.48484809,292.606060577,4338.60606017,399.757575718,4503.454545,98.9090908992,4249.99999958,3704.9696966,4394.2424238,3132.12121181,5034.57575707,3255.75757543,4140.27272686,515.1515151,4412.27272683,3544.24242389,4233.51515109,4187.15151473,4852.72727224,3733.81818144,4513.24242379,90.6666666576,42.0,42.0,?
2017-08-07 13:37:05.226503,4580.72727227,3840.96969659,4201.06060564,4154.18181777,3942.96969658,576.969696912,3994.9999996,292.606060577,4339.12121169,399.757575718,4508.60606016,98.9090908992,4244.84848442,3704.9696966,4393.21212077,3132.12121181,5040.24242374,3255.75757543,4140.78787837,515.1515151,4412.78787835,3544.24242389,4235.06060564,4187.15151473,4853.24242376,3733.81818144,4509.63636319,90.6666666576,42.0,42.0,?
2017-08-07 13:37:05.233851,4585.36363591,3840.96969659,4203.1212117,4154.18181777,3941.42424203,576.969696912,3996.54545415,292.606060577,4337.57575714,399.757575718,4500.87878743,98.9090908992,4237.1212117,3704.9696966,4391.15151471,3132.12121181,5039.21212071,3255.75757543,4140.27272686,515.1515151,4410.72727229,3544.24242389,4237.1212117,4187.15151473,4849.12121164,3733.81818144,4513.75757531,90.6666666576,42.0,42.0,?
2017-08-07 13:37:05.243733,4584.33333287,3840.96969659,4203.63636322,4154.18181777,3938.84848445,576.969696912,3994.9999996,292.606060577,4340.15151472,399.757575718,4495.72727228,98.9090908992,4235.57575715,3704.9696966,4389.09090865,3132.12121181,5035.6060601,3255.75757543,4139.24242383,515.1515151,4413.30302986,3544.24242389,4234.03030261,4187.15151473,4850.15151467,3733.81818144,4519.42424197,90.6666666576,42.0,42.0,?
2017-08-07 13:37:05.249841,4582.27272681,3840.96969659,4197.45454503,4154.18181777,3940.90909052,576.969696912,3994.9999996,292.606060577,4345.30302987,399.757575718,4499.33333288,98.9090908992,4237.1212117,3704.9696966,4389.09090865,3132.12121181,5040.75757525,3255.75757543,4140.78787837,515.1515151,4416.39393895,3544.24242389,4236.60606018,4187.15151473,4853.75757527,3733.81818144,4518.39393894,90.6666666576,42.0,42.0,?
2017-08-07 13:37:05.261570,4581.7575753,3840.96969659,4194.87878746,4154.18181777,3941.93939355,576.969696912,3999.12121172,292.606060577,4343.75757532,399.757575718,4499.8484844,98.9090908992,4236.09090867,3704.9696966,4390.6363632,3132.12121181,5045.39393889,3255.75757543,4141.30302989,515.1515151,4412.78787835,3544.24242389,4238.66666624,4187.15151473,4850.66666618,3733.81818144,4512.21212076,90.6666666576,42.0,42.0,?
2017-08-07 13:37:05.265805,4579.69696924,3840.96969659,4200.03030261,4154.18181777,3941.42424203,576.969696912,4003.24242384,292.606060577,4341.18181775,399.757575718,4498.30302985,98.9090908992,4237.1212117,3704.9696966,4388.57575714,3132.12121181,5042.81818131,3255.75757543,4141.8181814,515.1515151,4407.6363632,3544.24242389,4235.57575715,4187.15151473,4847.06060558,3733.81818144,4510.1515147,90.6666666576,42.0,42.0,?
2017-08-07 13:37:05.275392,4585.36363591,3840.96969659,4203.63636322,4154.18181777,3949.15151476,576.969696912,4004.78787839,292.606060577,4339.12121169,399.757575718,4497.78787834,98.9090908992,4235.06060564,3704.9696966,4383.42424199,3132.12121181,5038.69696919,3255.75757543,4142.84848443,515.1515151,4413.81818138,3544.24242389,4237.1212117,4187.15151473,4852.72727224,3733.81818144,4516.33333288,90.6666666576,42.0,42.0,?
2017-08-07 13:37:05.280861,4594.12121166,3840.96969659,4205.18181776,4154.18181777,3959.45454506,576.969696912,4004.78787839,292.606060577,4333.96969654,399.757575718,4493.66666622,98.9090908992,4233.51515109,3704.9696966,4382.39393896,3132.12121181,5035.6060601,3255.75757543,4143.87878746,515.1515151,4422.06060562,3544.24242389,4245.87878745,4187.15151473,4859.42424194,3733.81818144,4525.09090864,90.6666666576,42.0,42.0,?
2017-08-07 13:37:05.288372,4595.15151469,3840.96969659,4206.72727231,4154.18181777,3960.9999996,576.969696912,4006.33333293,292.606060577,4331.39393896,399.757575718,4492.12121167,98.9090908992,4236.60606018,3704.9696966,4381.87878744,3132.12121181,5028.90909041,3255.75757543,4140.78787837,515.1515151,4421.03030259,3544.24242389,4241.75757533,4187.15151473,4856.33333285,3733.81818144,4529.72727227,90.6666666576,42.0,42.0,?
2017-08-07 13:37:05.296151,4590.51515106,3840.96969659,4207.24242382,4154.18181777,3959.45454506,576.969696912,4004.27272687,292.606060577,4336.54545411,399.757575718,4499.33333288,98.9090908992,4238.15151473,3704.9696966,4383.42424199,3132.12121181,5023.24242374,3255.75757543,4129.96969656,515.1515151,4415.36363592,3544.24242389,4229.90909049,4187.15151473,4847.06060558,3733.81818144,4525.60606015,90.6666666576,42.0,42.0,?
2017-08-07 13:37:05.303439,4584.84848439,3840.96969659,4200.54545413,4154.18181777,3958.42424203,576.969696912,3998.09090869,292.606060577,4343.24242381,399.757575718,4504.48484803,98.9090908992,4238.15151473,3704.9696966,4391.66666623,3132.12121181,5028.90909041,3255.75757543,4128.42424201,515.1515151,4417.42424198,3544.24242389,4230.424242,4187.15151473,4843.96969649,3733.81818144,4515.81818137,90.6666666576,42.0,42.0,?
2017-08-07 13:37:05.312638,4586.39393894,3840.96969659,4195.90909049,4154.18181777,3958.93939354,576.969696912,3999.12121172,292.606060577,4339.6363632,399.757575718,4501.39393894,98.9090908992,4237.63636321,3704.9696966,4392.69696926,3132.12121181,5037.15151465,3255.75757543,4137.69696928,515.1515151,4424.63636319,3544.24242389,4232.99999958,4187.15151473,4843.96969649,3733.81818144,4511.69696925,90.6666666576,42.0,42.0,?
2017-08-07 13:37:05.324888,4585.87878742,3840.96969659,4196.93939352,4154.18181777,3959.96969657,576.969696912,4003.24242384,292.606060577,4329.3333329,399.757575718,4498.30302985,98.9090908992,4235.06060564,3704.9696966,4380.84848441,3132.12121181,5031.9999995,3255.75757543,4130.48484807,515.1515151,4421.03030259,3544.24242389,4222.18181776,4187.15151473,4836.24242376,3733.81818144,4512.72727228,90.6666666576,42.0,42.0,?
2017-08-07 13:37:05.330467,4579.18181772,3840.96969659,4194.36363594,4154.18181777,3958.42424203,576.969696912,3997.57575718,292.606060577,4329.3333329,399.757575718,4501.90909046,98.9090908992,4232.99999958,3704.9696966,4374.66666623,3132.12121181,5023.75757526,3255.75757543,4121.72727232,515.1515151,4414.33333289,3544.24242389,4213.93939352,4187.15151473,4827.484848,3733.81818144,4511.69696925,90.6666666576,42.0,42.0,?
2017-08-07 13:37:05.335411,4578.15151469,3840.96969659,4190.24242382,4154.18181777,3959.96969657,576.969696912,3996.54545415,292.606060577,4337.57575714,399.757575718,4501.39393894,98.9090908992,4235.57575715,3704.9696966,4383.9393935,3132.12121181,5026.84848435,3255.75757543,4135.12121171,515.1515151,4424.12121168,3544.24242389,4227.33333291,4187.15151473,4833.66666618,3733.81818144,4514.27272682,90.6666666576,42.0,42.0,?
2017-08-07 13:37:05.343501,4579.69696924,3840.96969659,4189.72727231,4154.18181777,3957.393939,576.969696912,3998.60606021,292.606060577,4327.78787836,399.757575718,4489.03030258,98.9090908992,4231.96969655,3704.9696966,4384.96969653,3132.12121181,5026.33333283,3255.75757543,4139.75757534,515.1515151,4430.30302986,3544.24242389,4235.57575715,4187.15151473,4840.87878739,3733.81818144,4515.30302985,90.6666666576,42.0,42.0,?
2017-08-07 13:37:05.351284,4571.96969651,3840.96969659,4188.69696928,4154.18181777,3945.54545415,576.969696912,3989.84848445,292.606060577,4312.3333329,399.757575718,4479.24242379,98.9090908992,4214.96969655,3704.9696966,4365.90909047,3132.12121181,5012.93939344,3255.75757543,4125.84848444,515.1515151,4418.96969653,3544.24242389,4224.24242382,4187.15151473,4830.06060558,3733.81818144,4504.48484803,90.6666666576,42.0,42.0,?
2017-08-07 13:37:05.358182,4566.30302985,3840.96969659,4184.57575716,4154.18181777,3939.87878748,576.969696912,3983.15151475,292.606060577,4314.39393896,399.757575718,4479.24242379,98.9090908992,4202.60606019,3704.9696966,4354.57575714,3132.12121181,5004.6969692,3255.75757543,4119.66666625,515.1515151,4410.21212077,3544.24242389,4215.48484806,4187.15151473,4818.72727225,3733.81818144,4499.8484844,90.6666666576,42.0,42.0,?
2017-08-07 13:37:05.368751,4567.84848439,3840.96969659,4185.60606019,4154.18181777,3942.96969658,576.969696912,3986.75757536,292.606060577,4319.54545411,399.757575718,4481.81818137,98.9090908992,4210.84848443,3704.9696966,4367.96969653,3132.12121181,5006.75757526,3255.75757543,4120.69696928,515.1515151,4414.33333289,3544.24242389,4215.48484806,4187.15151473,4826.45454497,3733.81818144,4509.12121167,90.6666666576,42.0,42.0,?
2017-08-07 13:37:05.375059,4568.36363591,3840.96969659,4188.69696928,4154.18181777,3943.48484809,576.969696912,3987.78787839,292.606060577,4311.30302987,399.757575718,4480.27272682,98.9090908992,4218.57575715,3704.9696966,4376.21212077,3132.12121181,5011.39393889,3255.75757543,4117.09090868,515.1515151,4417.42424198,3544.24242389,4215.99999958,4187.15151473,4830.06060558,3733.81818144,4514.78787834,90.6666666576,42.0,42.0,?
2017-08-07 13:37:05.381450,4569.39393894,3840.96969659,4189.72727231,4154.18181777,3946.06060567,576.969696912,3987.78787839,292.606060577,4306.66666624,399.757575718,4477.69696925,98.9090908992,4214.45454503,3704.9696966,4364.36363593,3132.12121181,5009.84848435,3255.75757543,4113.99999959,515.1515151,4411.2424238,3544.24242389,4213.93939352,4187.15151473,4822.84848437,3733.81818144,4507.06060561,90.6666666576,42.0,42.0,?
2017-08-07 13:37:05.389498,4572.48484803,3840.96969659,4190.75757534,4154.18181777,3947.60606021,576.969696912,3990.36363596,292.606060577,4313.36363593,399.757575718,4478.21212076,98.9090908992,4213.93939352,3704.9696966,4366.42424199,3132.12121181,5008.3030298,3255.75757543,4116.57575716,515.1515151,4410.72727229,3544.24242389,4212.39393897,4187.15151473,4825.42424194,3733.81818144,4499.8484844,90.6666666576,42.0,42.0,?
2017-08-07 13:37:05.399213,4570.93939348,3840.96969659,4189.21212079,4154.18181777,3941.93939355,576.969696912,3987.78787839,292.606060577,4312.84848442,399.757575718,4478.21212076,98.9090908992,4221.66666624,3704.9696966,4380.84848441,3132.12121181,5012.93939344,3255.75757543,4119.15151474,515.1515151,4415.36363592,3544.24242389,4211.36363594,4187.15151473,4830.57575709,3733.81818144,4505.51515106,90.6666666576,42.0,42.0,?
2017-08-07 13:37:05.410220,4568.36363591,3840.96969659,4187.66666625,4154.18181777,3940.90909052,576.969696912,3984.6969693,292.606060577,4306.15151472,399.757575718,4477.69696925,98.9090908992,4221.15151473,3704.9696966,4375.69696926,3132.12121181,5014.9999995,3255.75757543,4119.66666625,515.1515151,4412.27272683,3544.24242389,4208.78787837,4187.15151473,4825.42424194,3733.81818144,4507.06060561,90.6666666576,42.0,42.0,?
2017-08-07 13:37:05.414645,4569.90909045,3840.96969659,4188.69696928,4154.18181777,3947.60606021,576.969696912,3988.3030299,292.606060577,4305.12121169,399.757575718,4477.69696925,98.9090908992,4215.99999958,3704.9696966,4363.3333329,3132.12121181,5012.93939344,3255.75757543,4118.63636322,515.1515151,4409.69696926,3544.24242389,4204.66666625,4187.15151473,4825.42424194,3733.81818144,4503.454545,90.6666666576,42.0,42.0,?
2017-08-07 13:37:05.427228,4571.96969651,3840.96969659,4190.24242382,4154.18181777,3948.12121173,576.969696912,3986.24242384,292.606060577,4304.09090866,399.757575718,4478.21212076,98.9090908992,4218.57575715,3704.9696966,4363.84848441,3132.12121181,5013.45454495,3255.75757543,4118.63636322,515.1515151,4411.75757532,3544.24242389,4201.06060564,4187.15151473,4831.09090861,3733.81818144,4506.03030258,90.6666666576,42.0,42.0,?
2017-08-07 13:37:05.431275,4569.90909045,3840.96969659,4189.21212079,4154.18181777,3941.42424203,576.969696912,3982.63636324,292.606060577,4300.48484805,399.757575718,4476.66666622,98.9090908992,4219.60606018,3704.9696966,4365.90909047,3132.12121181,5013.96969647,3255.75757543,4121.72727232,515.1515151,4411.2424238,3544.24242389,4197.96969655,4187.15151473,4830.57575709,3733.81818144,4507.57575713,90.6666666576,42.0,42.0,?
2017-08-07 13:37:05.436390,4565.27272682,3840.96969659,4185.60606019,4154.18181777,3931.12121173,576.969696912,3985.21212081,292.606060577,4305.63636321,399.757575718,4476.66666622,98.9090908992,4220.1212117,3704.9696966,4364.36363593,3132.12121181,5008.3030298,3255.75757543,4121.2121208,515.1515151,4409.18181774,3544.24242389,4191.27272685,4187.15151473,4827.99999952,3733.81818144,4498.81818137,90.6666666576,42.0,42.0,?
2017-08-07 13:37:05.445996,4563.21212076,3840.96969659,4185.09090867,4154.18181777,3931.63636324,576.969696912,3986.24242384,292.606060577,4312.84848442,399.757575718,4479.24242379,98.9090908992,4221.66666624,3704.9696966,4365.39393896,3132.12121181,5007.78787829,3255.75757543,4116.57575716,515.1515151,4408.66666623,3544.24242389,4185.60606019,4187.15151473,4825.93939346,3733.81818144,4496.24242379,90.6666666576,42.0,42.0,?
2017-08-07 13:37:05.452250,4567.84848439,3840.96969659,4187.15151473,4154.18181777,3939.36363597,576.969696912,3983.15151475,292.606060577,4306.66666624,399.757575718,4479.75757531,98.9090908992,4221.15151473,3704.9696966,4365.90909047,3132.12121181,5015.51515101,3255.75757543,4116.06060565,515.1515151,4411.75757532,3544.24242389,4185.60606019,4187.15151473,4826.45454497,3733.81818144,4501.39393894,90.6666666576,42.0,42.0,?
2017-08-07 13:37:05.460154,4568.87878742,3840.96969659,4187.66666625,4154.18181777,3939.87878748,576.969696912,3981.60606021,292.606060577,4300.48484805,399.757575718,4477.69696925,98.9090908992,4218.57575715,3704.9696966,4369.51515108,3132.12121181,5017.06060556,3255.75757543,4118.63636322,515.1515151,4412.27272683,3544.24242389,4184.57575716,4187.15151473,4831.60606012,3733.81818144,4499.8484844,90.6666666576,42.0,42.0,?
2017-08-07 13:37:05.467494,4564.24242379,3840.96969659,4187.15151473,4154.18181777,3935.75757536,576.969696912,3982.63636324,292.606060577,4303.06060563,399.757575718,4477.69696925,98.9090908992,4217.03030261,3704.9696966,4374.15151471,3132.12121181,5011.90909041,3255.75757543,4115.03030262,515.1515151,4408.15151471,3544.24242389,4178.90909049,4187.15151473,4826.96969649,3733.81818144,4492.63636319,90.6666666576,42.0,42.0,?
2017-08-07 13:37:05.476756,4559.60606015,3840.96969659,4186.1212117,4154.18181777,3933.18181779,576.969696912,3979.03030263,292.606060577,4304.60606018,399.757575718,4479.24242379,98.9090908992,4218.57575715,3704.9696966,4374.66666623,3132.12121181,5009.84848435,3255.75757543,4110.9090905,515.1515151,4403.51515107,3544.24242389,4173.24242383,4187.15151473,4818.72727225,3733.81818144,4486.45454501,90.6666666576,42.0,42.0,?
2017-08-07 13:37:05.484869,4560.12121167,3840.96969659,4186.1212117,4154.18181777,3930.0909087,576.969696912,3976.45454506,292.606060577,4302.0303026,399.757575718,4479.75757531,98.9090908992,4220.1212117,3704.9696966,4371.06060562,3132.12121181,5010.87878738,3255.75757543,4112.96969656,515.1515151,4402.99999956,3544.24242389,4169.1212117,4187.15151473,4822.33333285,3733.81818144,4492.12121167,90.6666666576,42.0,42.0,?
2017-08-07 13:37:05.491946,4564.7575753,3840.96969659,4189.21212079,4154.18181777,3926.99999961,576.969696912,3978.51515112,292.606060577,4302.0303026,399.757575718,4478.72727228,98.9090908992,4220.63636321,3704.9696966,4371.06060562,3132.12121181,5014.9999995,3255.75757543,4116.06060565,515.1515151,4407.12121168,3544.24242389,4167.57575716,4187.15151473,4831.60606012,3733.81818144,4499.8484844,90.6666666576,42.0,42.0,?
2017-08-07 13:37:05.499896,4564.7575753,3840.96969659,4190.75757534,4154.18181777,3928.54545415,576.969696912,3975.93939354,292.606060577,4302.54545412,399.757575718,4474.60606016,98.9090908992,4215.99999958,3704.9696966,4373.12121168,3132.12121181,5021.18181768,3255.75757543,4112.45454504,515.1515151,4407.12121168,3544.24242389,4163.96969655,4187.15151473,4829.54545406,3733.81818144,4495.72727228,90.6666666576,42.0,42.0,?
2017-08-07 13:37:05.507893,4558.57575712,3840.96969659,4187.15151473,4154.18181777,3929.06060567,576.969696912,3968.72727233,292.606060577,4298.93939351,399.757575718,4465.8484844,98.9090908992,4214.45454503,3704.9696966,4373.6363632,3132.12121181,5017.57575707,3255.75757543,4109.36363595,515.1515151,4405.06060562,3544.24242389,4158.8181814,4187.15151473,4822.84848437,3733.81818144,4492.12121167,90.6666666576,42.0,42.0,?
2017-08-07 13:37:05.523451,4557.54545409,3840.96969659,4188.18181776,4154.18181777,3926.48484809,576.969696912,3965.12121172,292.606060577,4299.45454502,399.757575718,4463.78787834,98.9090908992,4218.06060564,3704.9696966,4373.6363632,3132.12121181,5012.93939344,3255.75757543,4117.60606019,515.1515151,4408.15151471,3544.24242389,4161.90909049,4187.15151473,4826.45454497,3733.81818144,4496.24242379,90.6666666576,42.0,42.0,?
2017-08-07 13:37:05.527651,4562.69696924,3840.96969659,4190.75757534,4154.18181777,3929.57575718,576.969696912,3966.15151475,292.606060577,4300.48484805,399.757575718,4466.87878743,98.9090908992,4213.424242,3704.9696966,4368.99999956,3132.12121181,5019.12121162,3255.75757543,4125.33333292,515.1515151,4410.72727229,3544.24242389,4160.36363595,4187.15151473,4832.12121164,3733.81818144,4496.24242379,90.6666666576,42.0,42.0,?
2017-08-07 13:37:05.530789,4565.78787833,3840.96969659,4191.78787837,4154.18181777,3935.24242385,576.969696912,3965.63636324,292.606060577,4298.42424199,399.757575718,4464.81818137,98.9090908992,4202.60606019,3704.9696966,4363.84848441,3132.12121181,5014.48484798,3255.75757543,4122.75757535,515.1515151,4411.75757532,3544.24242389,4152.12121171,4187.15151473,4830.57575709,3733.81818144,4497.27272682,90.6666666576,42.0,42.0,?
2017-08-07 13:37:05.540757,4566.30302985,3840.96969659,4195.90909049,4154.18181777,3936.27272688,576.969696912,3964.60606021,292.606060577,4299.96969654,399.757575718,4467.39393895,98.9090908992,4203.1212117,3704.9696966,4368.99999956,3132.12121181,5005.21212071,3255.75757543,4119.15151474,515.1515151,4413.81818138,3544.24242389,4149.54545413,4187.15151473,4828.51515103,3733.81818144,4503.454545,90.6666666576,42.0,42.0,?
2017-08-07 13:37:05.546346,4564.7575753,3840.96969659,4195.39393897,4154.18181777,3929.06060567,576.969696912,3965.63636324,292.606060577,4304.09090866,399.757575718,4472.5454541,98.9090908992,4211.36363594,3704.9696966,4372.60606017,3132.12121181,5008.81818132,3255.75757543,4117.09090868,515.1515151,4410.72727229,3544.24242389,4146.45454504,4187.15151473,4826.96969649,3733.81818144,4500.87878743,90.6666666576,42.0,42.0,?
2017-08-07 13:37:05.554543,4561.66666621,3840.96969659,4193.33333291,4154.18181777,3926.99999961,576.969696912,3967.6969693,292.606060577,4308.21212078,399.757575718,4470.99999955,98.9090908992,4213.424242,3704.9696966,4366.9393935,3132.12121181,5011.39393889,3255.75757543,4117.09090868,515.1515151,4406.60606017,3544.24242389,4139.75757534,4187.15151473,4826.96969649,3733.81818144,4495.72727228,90.6666666576,42.0,42.0,?
2017-08-07 13:37:05.561394,4561.66666621,3840.96969659,4202.09090867,4154.18181777,3932.66666627,576.969696912,3967.6969693,292.606060577,4311.30302987,399.757575718,4472.5454541,98.9090908992,4216.51515109,3704.9696966,4366.9393935,3132.12121181,5011.90909041,3255.75757543,4124.30302989,515.1515151,4412.27272683,3544.24242389,4147.99999959,4187.15151473,4831.60606012,3733.81818144,4500.36363591,90.6666666576,42.0,42.0,?
2017-08-07 13:37:05.569885,4562.69696924,3840.96969659,4209.30302988,4154.18181777,3931.12121173,576.969696912,3964.09090869,292.606060577,4310.27272684,399.757575718,4480.78787834,98.9090908992,4221.66666624,3704.9696966,4374.15151471,3132.12121181,5018.09090859,3255.75757543,4128.93939353,515.1515151,4417.42424198,3544.24242389,4154.18181777,4187.15151473,4836.24242376,3733.81818144,4500.87878743,90.6666666576,42.0,42.0,?
2017-08-07 13:37:05.579419,4561.1515147,3840.96969659,4203.63636322,4154.18181777,3923.90909052,576.969696912,3961.51515112,292.606060577,4305.63636321,399.757575718,4481.81818137,98.9090908992,4221.15151473,3704.9696966,4372.09090865,3132.12121181,5013.45454495,3255.75757543,4122.24242383,515.1515151,4411.2424238,3544.24242389,4140.27272686,4187.15151473,4834.1818177,3733.81818144,4493.1515147,90.6666666576,42.0,42.0,?
2017-08-07 13:37:05.585626,4562.69696924,3849.21212083,4202.60606019,4154.18181777,3925.96969658,576.969696912,3964.09090869,292.606060577,4304.60606018,399.757575718,4476.66666622,98.9090908992,4225.78787837,3704.9696966,4372.60606017,3132.12121181,5011.39393889,3255.75757543,4123.78787838,515.1515151,4408.66666623,3544.24242389,4135.12121171,4187.15151473,4833.66666618,3733.81818144,4493.1515147,90.6666666576,42.0,42.0,?
2017-08-07 13:37:05.593296,4565.78787833,3849.21212083,4208.27272685,4158.30302989,3932.15151476,576.969696912,3967.6969693,292.606060577,4302.54545412,399.757575718,4476.1515147,98.9090908992,4232.99999958,3704.9696966,4379.81818138,3132.12121181,5024.27272677,3255.75757543,4134.60606019,515.1515151,4415.87878744,3544.24242389,4146.45454504,4187.15151473,4839.33333285,3733.81818144,4500.36363591,90.6666666576,42.0,42.0,?
2017-08-07 13:37:05.600693,4565.27272682,3849.21212083,4207.75757534,4158.30302989,3932.15151476,576.969696912,3967.6969693,292.606060577,4304.09090866,399.757575718,4478.72727228,98.9090908992,4227.84848443,3704.9696966,4378.78787835,3132.12121181,5022.21212071,3255.75757543,4134.09090868,515.1515151,4416.90909047,3544.24242389,4148.5151511,4187.15151473,4839.33333285,3733.81818144,4504.99999955,90.6666666576,42.0,42.0,?
2017-08-07 13:37:05.608521,4567.84848439,3849.21212083,4205.69696928,4158.30302989,3928.54545415,581.090909033,3967.6969693,292.606060577,4312.84848442,399.757575718,4482.33333289,98.9090908992,4215.48484806,3704.9696966,4368.99999956,3132.12121181,5005.72727223,3255.75757543,4125.33333292,515.1515151,4412.27272683,3544.24242389,4140.78787837,4187.15151473,4836.24242376,3733.81818144,4510.1515147,90.6666666576,42.0,42.0,?
2017-08-07 13:37:05.622066,4568.87878742,3849.21212083,4209.8181814,4158.30302989,3929.57575718,581.090909033,3969.75757536,288.484848456,4316.45454502,399.757575718,4480.78787834,98.9090908992,4214.45454503,3704.9696966,4364.36363593,3132.12121181,5004.18181768,3255.75757543,4123.27272686,515.1515151,4412.27272683,3544.24242389,4137.69696928,4187.15151473,4837.7878783,3733.81818144,4511.69696925,90.6666666576,42.0,42.0,?
2017-08-07 13:37:05.625629,4562.69696924,3849.21212083,4215.99999958,4158.30302989,3931.12121173,581.090909033,3969.75757536,288.484848456,4314.90909048,407.999999959,4479.24242379,98.9090908992,4223.7272723,3704.9696966,4374.15151471,3132.12121181,5016.54545404,3255.75757543,4126.36363595,515.1515151,4412.78787835,3544.24242389,4136.66666625,4187.15151473,4838.30302982,3733.81818144,4504.48484803,90.6666666576,42.0,42.0,?
2017-08-07 13:37:05.632007,4559.60606015,3849.21212083,4212.39393897,4158.30302989,3929.06060567,581.090909033,3966.66666627,288.484848456,4315.42424199,407.999999959,4481.30302985,111.272727262,4231.96969655,3704.9696966,4386.51515108,3132.12121181,5019.63636313,3255.75757543,4124.30302989,515.1515151,4408.66666623,3544.24242389,4134.60606019,4187.15151473,4830.57575709,3733.81818144,4496.75757531,90.6666666576,42.0,42.0,?
2017-08-07 13:37:05.641633,4561.66666621,3849.21212083,4205.18181776,4158.30302989,3929.57575718,581.090909033,3965.12121172,288.484848456,4314.39393896,407.999999959,4478.72727228,111.272727262,4232.99999958,3700.84848448,4384.45454502,3132.12121181,5013.45454495,3255.75757543,4123.27272686,515.1515151,4403.51515107,3544.24242389,4132.03030262,4187.15151473,4822.84848437,3733.81818144,4495.72727228,90.6666666576,42.0,42.0,?
2017-08-07 13:37:05.652239,4561.66666621,3849.21212083,4210.33333291,4158.30302989,3929.06060567,581.090909033,3965.63636324,288.484848456,4311.81818139,407.999999959,4475.63636319,111.272727262,4232.99999958,3700.84848448,4377.2424238,3132.12121181,5010.36363586,3255.75757543,4123.78787838,515.1515151,4404.54545411,3544.24242389,4128.93939353,4187.15151473,4826.96969649,3733.81818144,4497.78787834,90.6666666576,42.0,42.0,?
2017-08-07 13:37:05.658221,4563.72727227,3849.21212083,4219.09090867,4158.30302989,3925.45454506,581.090909033,3966.15151475,288.484848456,4314.39393896,407.999999959,4478.21212076,111.272727262,4232.99999958,3700.84848448,4378.78787835,3132.12121181,5012.93939344,3251.63636331,4122.24242383,515.1515151,4408.15151471,3544.24242389,4132.54545413,4187.15151473,4833.66666618,3733.81818144,4496.75757531,90.6666666576,42.0,42.0,?
2017-08-07 13:37:05.664117,4563.72727227,3849.21212083,4219.09090867,4158.30302989,3928.03030264,581.090909033,3967.18181779,288.484848456,4314.39393896,407.999999959,4479.24242379,111.272727262,4224.24242382,3700.84848448,4382.90909047,3132.12121181,5013.96969647,3251.63636331,4124.30302989,523.393939342,4406.60606017,3544.24242389,4132.54545413,4187.15151473,4832.63636315,3733.81818144,4494.69696925,90.6666666576,42.0,42.0,?
2017-08-07 13:37:05.672674,4562.69696924,3849.21212083,4218.57575715,4158.30302989,3932.66666627,581.090909033,3969.24242385,288.484848456,4312.84848442,407.999999959,4477.18181773,111.272727262,4223.21212079,3700.84848448,4380.84848441,3132.12121181,5011.90909041,3251.63636331,4124.81818141,523.393939342,4406.09090865,3556.60606025,4135.12121171,4187.15151473,4829.54545406,3733.81818144,4497.78787834,90.6666666576,42.0,42.0,?
2017-08-07 13:37:05.681347,4560.63636318,3849.21212083,4220.1212117,4158.30302989,3931.12121173,581.090909033,3969.24242385,288.484848456,4315.42424199,407.999999959,4478.21212076,111.272727262,4231.45454503,3700.84848448,4381.87878744,3132.12121181,5014.9999995,3251.63636331,4123.78787838,523.393939342,4409.69696926,3556.60606025,4136.15151474,4191.27272685,4831.09090861,3733.81818144,4497.27272682,90.6666666576,42.0,42.0,?
2017-08-07 13:37:05.686906,4564.24242379,3849.21212083,4221.66666624,4158.30302989,3938.33333294,581.090909033,3970.27272688,288.484848456,4319.0303026,407.999999959,4479.24242379,111.272727262,4229.39393897,3700.84848448,4382.39393896,3132.12121181,5017.06060556,3251.63636331,4130.99999959,523.393939342,4414.33333289,3556.60606025,4140.78787837,4191.27272685,4836.24242376,3737.93939357,4495.72727228,90.6666666576,42.0,42.0,?
2017-08-07 13:37:05.695098,4570.93939348,3849.21212083,4229.39393897,4158.30302989,3946.06060567,581.090909033,3975.93939354,288.484848456,4319.54545411,407.999999959,4479.24242379,111.272727262,4226.30302988,3700.84848448,4379.30302987,3132.12121181,5014.48484798,3251.63636331,4140.78787837,523.393939342,4418.96969653,3556.60606025,4149.03030262,4191.27272685,4839.84848436,3737.93939357,4507.06060561,90.6666666576,42.0,42.0,?
2017-08-07 13:37:05.705815,4570.42424197,3849.21212083,4237.1212117,4158.30302989,3938.33333294,581.090909033,3976.45454506,288.484848456,4317.48484805,407.999999959,4480.78787834,111.272727262,4236.60606018,3700.84848448,4381.36363593,3132.12121181,5014.9999995,3251.63636331,4140.27272686,523.393939342,4418.45454501,3552.48484813,4152.63636322,4191.27272685,4843.45454497,3737.93939357,4515.30302985,90.6666666576,42.0,42.0,?
2017-08-07 13:37:05.710958,4566.30302985,3849.21212083,4230.93939352,4158.30302989,3935.24242385,581.090909033,3970.78787839,288.484848456,4315.42424199,407.999999959,4478.72727228,111.272727262,4249.48484806,3700.84848448,4387.54545411,3132.12121181,5019.12121162,3251.63636331,4136.66666625,523.393939342,4414.33333289,3552.48484813,4150.57575716,4195.39393897,4844.99999952,3737.93939357,4506.03030258,90.6666666576,42.0,42.0,?
2017-08-07 13:37:05.720243,4563.72727227,3849.21212083,4222.69696927,4158.30302989,3940.393939,581.090909033,3968.21212082,288.484848456,4312.84848442,407.999999959,4480.78787834,111.272727262,4248.45454503,3700.84848448,4398.87878744,3132.12121181,5020.15151465,3251.63636331,4139.24242383,523.393939342,4412.27272683,3552.48484813,4149.03030262,4195.39393897,4839.84848436,3737.93939357,4499.33333288,90.6666666576,42.0,42.0,?
2017-08-07 13:37:05.726350,4562.18181773,3849.21212083,4225.27272685,4158.30302989,3934.21212082,581.090909033,3969.75757536,288.484848456,4317.99999957,407.999999959,4489.03030258,111.272727262,4242.78787836,3700.84848448,4409.69696926,3132.12121181,5017.06060556,3251.63636331,4140.78787837,523.393939342,4411.2424238,3552.48484813,4150.57575716,4195.39393897,4836.24242376,3737.93939357,4502.42424197,90.6666666576,42.0,42.0,?
2017-08-07 13:37:05.733201,4562.69696924,3849.21212083,4223.21212079,4158.30302989,3925.45454506,581.090909033,3968.72727233,288.484848456,4320.57575714,407.999999959,4487.99999955,111.272727262,4236.09090867,3700.84848448,4394.75757532,3132.12121181,5015.51515101,3251.63636331,4133.06060565,523.393939342,4409.69696926,3552.48484813,4146.96969656,4195.39393897,4837.7878783,3737.93939357,4498.30302985,90.6666666576,42.0,42.0,?
2017-08-07 13:37:05.741523,4563.72727227,3849.21212083,4219.60606018,4158.30302989,3927.51515112,581.090909033,3963.57575718,288.484848456,4310.27272684,407.999999959,4478.72727228,111.272727262,4226.8181814,3700.84848448,4370.54545411,3132.12121181,5012.42424192,3251.63636331,4128.42424201,523.393939342,4409.18181774,3552.48484813,4142.33333292,4195.39393897,4840.36363588,3737.93939357,4493.66666622,90.6666666576,42.0,42.0,?
2017-08-07 13:37:05.749111,4565.27272682,3849.21212083,4224.75757534,4158.30302989,3928.54545415,581.090909033,3962.03030263,288.484848456,4306.15151472,407.999999959,4476.1515147,111.272727262,4222.69696927,3700.84848448,4370.03030259,3132.12121181,5008.81818132,3251.63636331,4128.42424201,523.393939342,4412.27272683,3552.48484813,4143.87878746,4195.39393897,4842.42424194,3737.93939357,4496.24242379,90.6666666576,42.0,42.0,?
2017-08-07 13:37:05.759112,4566.81818136,3849.21212083,4218.57575715,4158.30302989,3926.99999961,581.090909033,3966.15151475,288.484848456,4314.39393896,407.999999959,4481.30302985,111.272727262,4229.39393897,3700.84848448,4377.75757532,3132.12121181,5008.3030298,3251.63636331,4128.42424201,523.393939342,4413.30302986,3552.48484813,4142.84848443,4195.39393897,4839.84848436,3737.93939357,4500.87878743,90.6666666576,42.0,42.0,?
2017-08-07 13:37:05.765268,4566.81818136,3849.21212083,4196.424242,4158.30302989,3932.15151476,581.090909033,3967.6969693,288.484848456,4316.45454502,407.999999959,4481.30302985,111.272727262,4236.60606018,3700.84848448,4377.75757532,3132.12121181,5010.36363586,3251.63636331,4133.57575716,523.393939342,4413.30302986,3552.48484813,4141.8181814,4195.39393897,4837.27272679,3737.93939357,4505.51515106,90.6666666576,42.0,42.0,?
2017-08-07 13:37:05.773885,4568.36363591,3849.21212083,4186.63636322,4158.30302989,3933.6969693,581.090909033,3967.18181779,288.484848456,4309.24242381,407.999999959,4479.24242379,111.272727262,4234.03030261,3700.84848448,4379.81818138,3132.12121181,5008.81818132,3251.63636331,4142.84848443,523.393939342,4420.51515107,3552.48484813,4147.99999959,4195.39393897,4847.06060558,3737.93939357,4508.09090864,90.6666666576,42.0,42.0,?
2017-08-07 13:37:05.780603,4570.93939348,3849.21212083,4193.33333291,4158.30302989,3932.15151476,581.090909033,3967.18181779,288.484848456,4310.27272684,407.999999959,4485.93939349,111.272727262,4235.57575715,3700.84848448,4381.36363593,3132.12121181,5006.75757526,3251.63636331,4139.24242383,523.393939342,4420.51515107,3552.48484813,4151.60606019,4195.39393897,4851.1818177,3737.93939357,4509.12121167,90.6666666576,42.0,42.0,?
2017-08-07 13:37:05.789605,4573.51515106,3849.21212083,4194.36363594,4158.30302989,3934.21212082,581.090909033,3967.6969693,288.484848456,4322.12121169,407.999999959,4493.66666622,111.272727262,4238.15151473,3700.84848448,4381.36363593,3132.12121181,5007.27272677,3251.63636331,4128.42424201,523.393939342,4412.27272683,3552.48484813,4145.93939352,4195.39393897,4840.87878739,3737.93939357,4507.06060561,90.6666666576,42.0,42.0,?
2017-08-07 13:37:05.797136,4570.42424197,3849.21212083,4191.78787837,4158.30302989,3933.18181779,581.090909033,3968.21212082,288.484848456,4325.21212078,407.999999959,4490.06060561,111.272727262,4231.45454503,3700.84848448,4382.39393896,3132.12121181,5006.75757526,3251.63636331,4127.39393898,523.393939342,4407.6363632,3552.48484813,4139.24242383,4195.39393897,4834.69696921,3737.93939357,4499.33333288,90.6666666576,42.0,42.0,?
2017-08-07 13:37:05.806592,4561.66666621,3849.21212083,4190.75757534,4158.30302989,3928.03030264,581.090909033,3966.66666627,288.484848456,4316.96969654,407.999999959,4478.21212076,111.272727262,4227.33333291,3700.84848448,4379.81818138,3132.12121181,5002.63636314,3251.63636331,4126.36363595,523.393939342,4405.57575714,3552.48484813,4135.63636322,4195.39393897,4832.12121164,3737.93939357,4493.1515147,90.6666666576,42.0,42.0,?
2017-08-07 13:37:05.812474,4559.09090864,3849.21212083,4188.69696928,4158.30302989,3930.0909087,581.090909033,3966.15151475,288.484848456,4315.93939351,407.999999959,4479.24242379,111.272727262,4233.51515109,3700.84848448,4382.39393896,3132.12121181,5000.06060556,3251.63636331,4124.81818141,523.393939342,4405.06060562,3552.48484813,4134.09090868,4195.39393897,4828.51515103,3737.93939357,4497.78787834,90.6666666576,42.0,42.0,?
2017-08-07 13:37:05.818931,4563.21212076,3849.21212083,4193.33333291,4158.30302989,3935.24242385,581.090909033,3968.72727233,288.484848456,4326.24242381,407.999999959,4492.12121167,111.272727262,4241.24242382,3700.84848448,4389.09090865,3132.12121181,5004.6969692,3251.63636331,4130.99999959,523.393939342,4407.12121168,3552.48484813,4137.69696928,4195.39393897,4830.57575709,3737.93939357,4503.454545,90.6666666576,42.0,42.0,?
2017-08-07 13:37:05.827859,4563.72727227,3849.21212083,4201.06060564,4158.30302989,3939.36363597,581.090909033,3969.75757536,288.484848456,4326.75757532,407.999999959,4491.60606016,111.272727262,4241.75757533,3700.84848448,4387.54545411,3132.12121181,5012.42424192,3251.63636331,4138.72727231,523.393939342,4409.18181774,3552.48484813,4144.90909049,4195.39393897,4834.69696921,3737.93939357,4501.90909046,90.6666666576,42.0,42.0,?
2017-08-07 13:37:05.835578,4563.72727227,3849.21212083,4202.09090867,4158.30302989,3941.93939355,581.090909033,3968.72727233,288.484848456,4321.60606017,407.999999959,4482.8484844,111.272727262,4243.81818139,3700.84848448,4391.15151471,3132.12121181,5020.66666616,3251.63636331,4148.5151511,523.393939342,4415.87878744,3552.48484813,4153.66666625,4195.39393897,4839.33333285,3737.93939357,4503.96969652,90.6666666576,42.0,42.0,?
2017-08-07 13:37:05.843312,4571.454545,3849.21212083,4201.06060564,4158.30302989,3945.03030264,581.090909033,3970.27272688,288.484848456,4324.18181775,407.999999959,4484.39393895,111.272727262,4252.06060564,3700.84848448,4402.48484804,3132.12121181,5022.72727222,3251.63636331,4159.84848443,523.393939342,4423.09090865,3552.48484813,4158.30302989,4195.39393897,4846.03030255,3737.93939357,4512.72727228,90.6666666576,42.0,42.0,?
2017-08-07 13:37:05.852951,4576.60606015,3849.21212083,4206.21212079,4158.30302989,3941.93939355,581.090909033,3971.30302991,288.484848456,4321.09090866,407.999999959,4487.48484804,111.272727262,4252.06060564,3700.84848448,4396.30302986,3132.12121181,5016.54545404,3251.63636331,4157.78787837,523.393939342,4422.06060562,3552.48484813,4155.2121208,4195.39393897,4848.09090861,3737.93939357,4513.75757531,90.6666666576,42.0,42.0,?
2017-08-07 13:37:05.858177,4567.84848439,3849.21212083,4202.09090867,4158.30302989,3934.21212082,581.090909033,3966.15151475,288.484848456,4320.57575714,407.999999959,4487.99999955,111.272727262,4241.75757533,3700.84848448,4379.81818138,3132.12121181,5009.84848435,3251.63636331,4144.39393898,523.393939342,4415.36363592,3552.48484813,4149.03030262,4195.39393897,4840.87878739,3737.93939357,4501.90909046,90.6666666576,42.0,42.0,?
2017-08-07 13:37:05.865952,4560.63636318,3849.21212083,4192.30302988,4158.30302989,3930.60606021,581.090909033,3963.57575718,288.484848456,4327.27272684,407.999999959,4489.03030258,111.272727262,4234.54545412,3700.84848448,4377.75757532,3132.12121181,5010.36363586,3251.63636331,4141.30302989,523.393939342,4412.27272683,3552.48484813,4145.42424201,4195.39393897,4835.72727224,3737.93939357,4496.24242379,90.6666666576,42.0,42.0,?
2017-08-07 13:37:05.875499,4564.7575753,3849.21212083,4195.90909049,4158.30302989,3933.18181779,581.090909033,3965.12121172,288.484848456,4324.69696926,407.999999959,4485.42424198,111.272727262,4235.57575715,3700.84848448,4387.03030259,3132.12121181,5012.42424192,3251.63636331,4147.48484807,523.393939342,4411.75757532,3552.48484813,4144.90909049,4195.39393897,4837.27272679,3737.93939357,4499.8484844,90.6666666576,42.0,42.0,?
