Timestamp,F3 Value,F3 Quality,FC5 Value,FC5 Quality,F7 Value,F7 Quality,T7 Value,T7 Quality,P7 Value,P7 Quality,O1 Value,O1 Quality,O2 Value,O2 Quality,P8 Value,P8 Quality,T8 Value,T8 Quality,F8 Value,F8 Quality,AF4 Value,AF4 Quality,FC6 Value,FC6 Quality,F4 Value,F4 Quality,AF3 Value,AF3 Quality,X Value,Y Value,Z Value
2017-08-07 12:02:19.855136,8281.57575675,0,3264.51515119,0,80.3636363556,0,6377.57575694,0,737.181818108,0,1390.90909077,0,156.090909075,0,5099.48484797,0,5279.27272674,0,3258.33333301,0,7699.45454468,0,6233.84848423,0,3931.63636324,0,3001.78787849,0,42.0,42.0,?
2017-08-07 12:02:19.855492,4506.54545409,0,3730.21212084,0,3817.27272689,0,3846.63636325,0,4234.03030261,0,4399.39393895,0,4174.27272686,0,4321.60606017,0,5043.33333283,0,4098.03030262,0,4359.21212078,0,4157.78787837,0,4767.21212074,0,4362.30302987,0,42.0,42.0,?
2017-08-07 12:02:19.855548,4508.09090864,0,3742.06060569,0,3822.93939356,0,3851.7878784,0,4244.33333291,0,4393.21212077,0,4175.30302989,0,4322.12121169,0,5021.69696919,0,4101.12121171,0,4359.72727229,0,4167.06060564,0,4765.15151467,0,4365.90909047,0,42.0,42.0,?
2017-08-07 12:02:19.855583,4508.09090864,0,3742.06060569,0,3828.60606022,0,3851.7878784,0,4244.33333291,0,4395.78787835,0,4174.27272686,0,4328.81818139,0,5021.69696919,0,4105.24242383,0,4361.27272684,0,4167.06060564,0,4768.75757528,0,4364.87878744,0,42.0,42.0,?
2017-08-07 12:02:19.858987,4508.09090864,0,3739.99999963,0,3822.93939356,0,3848.69696931,0,4239.18181776,0,4396.30302986,0,4171.18181776,0,4329.3333329,0,5023.75757526,0,4100.09090868,0,4355.60606017,0,4139.24242383,0,4765.66666619,0,4360.24242381,0,42.0,42.0,?
2017-08-07 12:02:19.860806,4507.06060561,0,3741.54545417,0,3819.33333295,0,3849.72727234,0,4233.51515109,0,4389.60606017,0,4170.66666625,0,4322.12121169,0,5017.06060556,0,4102.15151474,0,4354.57575714,0,4139.24242383,0,4763.09090861,0,4364.87878744,0,42.0,42.0,?
2017-08-07 12:02:19.865398,4503.454545,0,3737.42424205,0,3817.78787841,0,3843.54545416,0,4237.1212117,0,4396.30302986,0,4169.63636322,0,4319.54545411,0,5157.69696918,0,4103.69696929,0,4357.66666623,0,4173.75757534,0,4766.18181771,0,4358.69696926,0,42.0,42.0,?
2017-08-07 12:02:19.870261,4503.454545,0,3737.42424205,0,3817.78787841,0,3843.54545416,0,4237.1212117,0,4396.30302986,0,4169.63636322,0,4319.54545411,0,5157.69696918,0,4103.69696929,0,4357.66666623,0,4173.75757534,0,4766.18181771,0,4358.69696926,0,42.0,42.0,?
2017-08-07 12:02:19.877496,4508.09090864,0,3748.24242387,0,3823.96969659,0,3846.12121174,0,4239.18181776,0,4394.2424238,0,4172.21212079,0,4322.6363632,0,5183.96969645,0,4112.96969656,0,4367.45454502,0,4174.78787837,0,4772.8787874,0,4365.90909047,0,42.0,42.0,?
2017-08-07 12:02:19.882008,4508.09090864,0,3748.24242387,0,3823.96969659,0,3846.12121174,0,4239.18181776,0,4394.2424238,0,4172.21212079,0,4322.6363632,0,5183.96969645,0,4112.96969656,0,4367.45454502,0,4174.78787837,0,4772.8787874,0,4365.90909047,0,42.0,42.0,?
2017-08-07 12:02:19.885050,4508.60606016,0,3755.45454508,0,3828.60606022,0,3846.63636325,0,4247.424242,0,4401.96969653,0,4174.27272686,0,4325.21212078,0,5174.69696918,0,4115.03030262,0,4371.06060562,0,4161.90909049,0,4776.48484801,0,4367.45454502,0,42.0,42.0,?
2017-08-07 12:02:19.888076,4511.18181773,0,3752.8787875,0,3828.60606022,0,3846.63636325,0,4253.09090867,0,4404.03030259,0,4178.90909049,0,4328.30302987,0,5193.75757524,0,4111.93939353,0,4368.48484805,0,4153.15151474,0,4776.48484801,0,4367.45454502,0,42.0,42.0,?
2017-08-07 12:02:19.894017,4511.18181773,0,3752.8787875,0,3830.66666628,0,3850.75757537,0,4253.09090867,0,4395.78787835,0,4181.99999958,0,4330.36363593,0,5193.75757524,0,4119.66666625,0,4368.99999956,0,4153.15151474,0,4778.03030255,0,4371.57575714,0,42.0,42.0,?
2017-08-07 12:02:19.898029,4513.75757531,0,3760.60606023,0,3832.72727234,0,3851.7878784,0,4240.7272723,0,4395.27272683,0,4190.24242382,0,4333.96969654,0,5201.48484796,0,4128.42424201,0,4376.21212077,0,4173.24242383,0,4782.66666619,0,4371.06060562,0,42.0,42.0,?
2017-08-07 12:02:19.901135,4513.75757531,0,3767.30302993,0,3831.69696931,0,3850.24242386,0,4231.96969655,0,4399.39393895,0,4200.54545413,0,4338.60606017,0,5209.72727221,0,4123.27272686,0,4380.84848441,0,4190.24242382,0,4786.78787831,0,4367.96969653,0,42.0,42.0,?
2017-08-07 12:02:19.904038,4518.39393894,0,3768.84848447,0,3835.81818143,0,3855.39393901,0,4241.75757533,0,4400.9393935,0,4198.99999958,0,4339.12121169,0,5213.33333281,0,4115.03030262,0,4379.81818138,0,4180.96969655,0,4787.81818134,0,4376.72727229,0,42.0,42.0,?
2017-08-07 12:02:19.906960,4526.12121167,0,3776.5757572,0,3846.12121174,0,3862.60606022,0,4253.60606018,0,4408.15151471,0,4199.5151511,0,4344.78787835,0,5223.1212116,0,4127.9090905,0,4385.99999956,0,4183.54545413,0,4792.96969649,0,4389.09090865,0,42.0,42.0,?
2017-08-07 12:02:19.910280,4533.8484844,0,3788.42424205,0,3853.84848446,0,3867.24242386,0,4261.84848442,0,4421.5454541,0,4213.93939352,0,4355.60606017,0,5232.90909039,0,4142.84848443,0,4401.45454501,0,4205.18181776,0,4805.84848437,0,4392.69696926,0,42.0,42.0,?
2017-08-07 12:02:19.913053,4538.48484803,0,3794.60606023,0,3857.96969658,0,3869.81818143,0,4267.51515109,0,4424.12121168,0,4220.1212117,0,4356.12121169,0,5223.1212116,0,4139.24242383,0,4405.06060562,0,4209.30302988,0,4810.99999952,0,4394.75757532,0,42.0,42.0,?
2017-08-07 12:02:19.920350,4537.454545,0,3799.75757538,0,3861.57575719,0,3867.75757537,0,4269.06060563,0,4418.96969653,0,4215.48484806,0,4350.45454502,0,5220.54545402,0,4135.63636322,0,4399.39393895,0,4204.66666625,0,4805.33333285,0,4399.39393895,0,42.0,42.0,?
2017-08-07 12:02:19.929272,4538.48484803,0,3804.90909053,0,3863.63636325,0,3868.7878784,0,4268.0303026,0,4423.09090865,0,4220.1212117,0,4357.66666623,0,5235.99999948,0,4143.87878746,0,4402.99999956,0,4202.60606019,0,4808.42424194,0,4397.33333289,0,42.0,42.0,?
2017-08-07 12:02:19.936524,4537.454545,0,3804.39393901,0,3861.57575719,0,3875.99999961,0,4269.06060563,0,4430.81818138,0,4223.7272723,0,4365.90909047,0,5247.33333281,0,4139.75757534,0,4407.12121168,0,4188.69696928,0,4812.03030255,0,4393.21212077,0,42.0,42.0,?
2017-08-07 12:02:19.945532,4536.42424197,0,3808.51515113,0,3857.45454507,0,3879.60606022,0,4269.06060563,0,4426.18181774,0,4220.63636321,0,4365.39393896,0,5262.27272675,0,4126.36363595,0,4404.03030259,0,4184.57575716,0,4806.36363588,0,4394.2424238,0,42.0,42.0,?
2017-08-07 12:02:19.952753,4537.454545,0,3816.75757538,0,3858.4848481,0,3875.4848481,0,4267.51515109,0,4417.42424198,0,4223.21212079,0,4365.90909047,0,5285.45454493,0,4132.03030262,0,4401.45454501,0,4200.03030261,0,4804.81818134,0,4390.6363632,0,42.0,42.0,?
2017-08-07 12:02:19.958996,4538.99999955,0,3818.30302992,0,3863.63636325,0,3876.51515113,0,4268.0303026,0,4415.87878744,0,4222.69696927,0,4370.54545411,0,5290.09090856,0,4145.42424201,0,4405.06060562,0,4206.72727231,0,4808.93939346,0,4389.09090865,0,42.0,42.0,?
2017-08-07 12:02:19.969132,4542.09090864,0,3822.93939356,0,3867.24242386,0,3880.63636325,0,4269.06060563,0,4417.42424198,0,4219.60606018,0,4373.6363632,0,5279.27272674,0,4145.93939352,0,4410.21212077,0,4204.15151473,0,4811.51515103,0,4398.36363592,0,42.0,42.0,?
2017-08-07 12:02:19.981649,4546.21212076,0,3831.1818178,0,3865.1818178,0,3879.60606022,0,4274.7272723,0,4423.60606016,0,4227.33333291,0,4372.09090865,0,5272.57575705,0,4141.30302989,0,4413.30302986,0,4210.84848443,0,4813.57575709,0,4405.57575714,0,42.0,42.0,?
2017-08-07 12:02:19.986688,4546.21212076,0,3833.24242386,0,3865.69696931,0,3879.0909087,0,4282.96969654,0,4432.36363592,0,4237.63636321,0,4371.06060562,0,5267.4242419,0,4142.84848443,0,4413.81818138,0,4221.15151473,0,4814.60606012,0,4400.42424198,0,42.0,42.0,?
2017-08-07 12:02:19.993311,4541.06060561,0,3831.1818178,0,3865.69696931,0,3879.60606022,0,4285.54545412,0,4438.03030259,0,4238.15151473,0,4374.66666623,0,5259.69696917,0,4146.96969656,0,4412.78787835,0,4221.15151473,0,4813.57575709,0,4393.21212077,0,42.0,42.0,?
2017-08-07 12:02:20.000169,4539.51515106,0,3832.72727234,0,3861.06060567,0,3879.0909087,0,4284.51515109,0,4445.2424238,0,4242.27272685,0,4377.75757532,0,5248.87878735,0,4142.84848443,0,4411.2424238,0,4215.99999958,0,4813.57575709,0,4394.2424238,0,42.0,42.0,?
2017-08-07 12:02:20.006828,4545.18181773,0,3841.99999962,0,3866.21212083,0,3877.54545416,0,4282.96969654,0,4446.78787834,0,4245.36363594,0,4376.72727229,0,5240.1212116,0,4146.96969656,0,4415.87878744,0,4217.54545412,0,4817.1818177,0,4401.45454501,0,42.0,42.0,?
2017-08-07 12:02:20.016482,4554.96969651,0,3851.27272689,0,3875.99999961,0,3878.57575719,0,4283.48484806,0,4439.06060562,0,4239.18181776,0,4377.2424238,0,5235.48484796,0,4163.96969655,0,4426.69696925,0,4222.69696927,0,4823.36363588,0,4404.54545411,0,42.0,42.0,?
2017-08-07 12:02:20.022458,4556.51515106,0,3853.84848446,0,3872.39393901,0,3883.72727234,0,4287.60606018,0,4432.87878744,0,4234.54545412,0,4374.15151471,0,5235.99999948,0,4167.57575716,0,4428.2424238,0,4224.75757534,0,4822.84848437,0,4400.42424198,0,42.0,42.0,?
2017-08-07 12:02:20.030047,4546.72727227,0,3850.75757537,0,3866.72727234,0,3882.69696931,0,4282.45454503,0,4423.60606016,0,4227.84848443,0,4364.87878744,0,5239.60606008,0,4154.69696928,0,4417.9393935,0,4219.09090867,0,4814.60606012,0,4399.39393895,0,42.0,42.0,?
2017-08-07 12:02:20.041663,4542.09090864,0,3848.69696931,0,3867.75757537,0,3877.54545416,0,4268.54545412,0,4414.33333289,0,4216.51515109,0,4358.18181775,0,5233.4242419,0,4155.2121208,0,4415.36363592,0,4208.27272685,0,4813.06060558,0,4400.42424198,0,42.0,42.0,?
2017-08-07 12:02:20.046739,4544.66666621,0,3854.36363598,0,3868.7878784,0,3877.03030264,0,4270.60606018,0,4419.99999956,0,4213.93939352,0,4358.18181775,0,5220.03030251,0,4161.39393898,0,4416.39393895,0,4202.09090867,0,4814.60606012,0,4394.2424238,0,42.0,42.0,?
2017-08-07 12:02:20.052978,4546.72727227,0,3863.12121173,0,3870.84848446,0,3879.0909087,0,4278.84848442,0,4427.72727228,0,4222.69696927,0,4362.30302987,0,5219.51515099,0,4155.72727231,0,4412.78787835,0,4204.15151473,0,4812.54545406,0,4393.72727229,0,42.0,42.0,?
2017-08-07 12:02:20.062236,4548.27272682,0,3866.72727234,0,3875.4848481,0,3880.12121173,0,4272.66666624,0,4427.72727228,0,4230.93939352,0,4370.03030259,0,5221.06060554,0,4157.78787837,0,4415.87878744,0,4200.54545413,0,4816.66666619,0,4401.96969653,0,42.0,42.0,?
2017-08-07 12:02:20.069489,4555.99999954,0,3870.84848446,0,3877.54545416,0,3879.60606022,0,4269.57575715,0,4432.87878744,0,4235.06060564,0,4378.78787835,0,5209.72727221,0,4170.66666625,0,4427.21212077,0,4194.36363594,0,4827.484848,0,4405.06060562,0,42.0,42.0,?
2017-08-07 12:02:20.078958,4560.12121167,0,3880.12121173,0,3875.4848481,0,3880.12121173,0,4279.36363594,0,4436.48484804,0,4235.57575715,0,4377.2424238,0,5206.63636312,0,4174.78787837,0,4433.39393895,0,4206.72727231,0,4831.09090861,0,4405.06060562,0,42.0,42.0,?
2017-08-07 12:02:20.084296,4556.51515106,0,3883.21212082,0,3871.87878749,0,3881.15151476,0,4279.36363594,0,4431.84848441,0,4237.1212117,0,4369.51515108,0,5212.30302978,0,4173.75757534,0,4430.30302986,0,4218.06060564,0,4827.484848,0,4406.09090865,0,42.0,42.0,?
2017-08-07 12:02:20.092022,4552.39393894,0,3878.57575719,0,3865.1818178,0,3875.99999961,0,4277.30302988,0,4434.42424198,0,4236.09090867,0,4369.51515108,0,5203.03030251,0,4169.1212117,0,4423.60606016,0,4204.15151473,0,4822.33333285,0,4396.81818138,0,42.0,42.0,?
2017-08-07 12:02:20.101418,4546.21212076,0,3877.54545416,0,3858.4848481,0,3866.72727234,0,4283.48484806,0,4435.45454501,0,4222.69696927,0,4366.9393935,0,5187.06060554,0,4160.36363595,0,4414.33333289,0,4181.48484807,0,4814.09090861,0,4387.03030259,0,42.0,42.0,?
2017-08-07 12:02:20.109194,4541.57575712,0,3880.12121173,0,3856.42424204,0,3865.69696931,0,4275.75757533,0,4427.21212077,0,4214.45454503,0,4355.60606017,0,5172.1212116,0,4157.78787837,0,4407.12121168,0,4172.72727231,0,4805.84848437,0,4390.6363632,0,42.0,42.0,?
2017-08-07 12:02:20.118487,4543.63636318,0,3880.12121173,0,3857.96969658,0,3867.24242386,0,4266.99999957,0,4425.15151471,0,4217.03030261,0,4349.42424199,0,5158.72727221,0,4154.69696928,0,4406.09090865,0,4171.69696928,0,4802.75757528,0,4395.27272683,0,42.0,42.0,?
2017-08-07 12:02:20.125071,4545.18181773,0,3879.60606022,0,3853.84848446,0,3866.72727234,0,4279.36363594,0,4436.48484804,0,4217.03030261,0,4348.90909047,0,5153.06060555,0,4144.39393898,0,4405.57575714,0,4172.72727231,0,4803.78787831,0,4391.15151471,0,42.0,42.0,?
2017-08-07 12:02:20.132862,4542.09090864,3717.33333296,3885.27272688,0,3849.21212083,0,3871.87878749,0,4295.84848442,0,4445.75757531,0,4221.15151473,0,4350.96969653,0,5161.30302979,0,4145.93939352,0,4408.15151471,0,4183.03030261,0,4807.39393891,0,4384.45454502,0,42.0,42.0,?
2017-08-07 12:02:20.139503,4543.12121167,3717.33333296,3894.03030264,4195.39393897,3860.54545416,0,3872.90909052,0,4296.87878745,0,4447.81818137,0,4233.51515109,0,4364.36363593,0,5171.09090857,0,4165.5151511,0,4416.39393895,0,4201.06060564,0,4813.06060558,0,4387.03030259,0,42.0,42.0,?
2017-08-07 12:02:20.148523,4549.81818136,3717.33333296,3897.63636325,4195.39393897,3874.96969658,0,3869.30302992,0,4296.36363593,0,4447.30302986,0,4241.75757533,0,4376.21212077,0,5175.21212069,0,4183.03030261,0,4423.09090865,0,4214.45454503,0,4818.72727225,0,4398.87878744,135.999999986,42.0,42.0,?
2017-08-07 12:02:20.154931,4552.90909045,3717.33333296,3903.81818143,4195.39393897,3877.54545416,440.969696926,3872.90909052,0,4298.42424199,0,4444.21212077,0,4234.54545412,0,4368.99999956,0,5173.15151463,0,4185.09090867,0,4426.69696925,0,4218.57575715,0,4819.75757528,0,4402.48484804,135.999999986,42.0,42.0,?
2017-08-07 12:02:20.163033,4554.454545,3717.33333296,3913.0909087,4195.39393897,3880.12121173,440.969696926,3880.12121173,655.272727207,4291.21212078,0,4442.15151471,0,4221.66666624,0,4363.3333329,0,5166.45454494,0,4185.09090867,0,4431.84848441,0,4220.1212117,0,4823.36363588,0,4399.39393895,135.999999986,42.0,42.0,?
2017-08-07 12:02:20.170467,4553.93939348,3717.33333296,3916.18181779,4195.39393897,3882.69696931,440.969696926,3878.57575719,655.272727207,4280.90909048,502.787878738,4441.63636319,0,4218.57575715,0,4370.03030259,0,5166.45454494,0,4185.60606019,0,4433.90909047,0,4220.1212117,0,4829.54545406,0,4402.48484804,135.999999986,42.0,42.0,?
2017-08-07 12:02:20.178954,4547.24242379,3717.33333296,3912.57575718,4195.39393897,3873.42424204,440.969696926,3870.84848446,655.272727207,4274.21212078,502.787878738,4440.60606016,131.878787866,4226.8181814,0,4370.54545411,0,5171.09090857,0,4179.42424201,0,4424.12121168,0,4215.99999958,0,4823.36363588,0,4399.90909047,135.999999986,42.0,42.0,?
2017-08-07 12:02:20.186006,4541.57575712,3717.33333296,3909.48484809,4195.39393897,3862.60606022,440.969696926,3865.1818178,655.272727207,4283.99999957,502.787878738,4444.21212077,131.878787866,4236.60606018,3408.2424239,4366.9393935,0,5173.15151463,0,4172.72727231,0,4416.39393895,0,4215.99999958,0,4813.57575709,0,4391.66666623,135.999999986,42.0,42.0,?
2017-08-07 12:02:20.195266,4544.1515147,3717.33333296,3915.66666628,4195.39393897,3864.66666628,440.969696926,3862.0909087,655.272727207,4299.45454502,502.787878738,4456.06060561,131.878787866,4243.30302988,3408.2424239,4375.18181774,3008.48484818,5173.66666615,0,4174.78787837,0,4421.5454541,0,4220.1212117,0,4817.1818177,0,4392.18181774,135.999999986,42.0,42.0,?
2017-08-07 12:02:20.205604,4548.78787833,3717.33333296,3928.03030264,4195.39393897,3873.42424204,440.969696926,3866.72727234,655.272727207,4294.30302987,502.787878738,4452.45454501,131.878787866,4241.75757533,3408.2424239,4378.78787835,3008.48484818,5172.63636312,3606.0606057,4176.84848443,0,4427.72727228,0,4218.57575715,0,4822.33333285,0,4396.81818138,135.999999986,42.0,42.0,?
2017-08-07 12:02:20.210088,4552.39393894,3717.33333296,3930.60606021,4195.39393897,3871.36363598,440.969696926,3872.90909052,655.272727207,4282.45454503,502.787878738,4435.96969653,131.878787866,4236.60606018,3408.2424239,4372.09090865,3008.48484818,5171.60606009,3606.0606057,4178.39393898,440.969696926,4430.81818138,0,4221.15151473,0,4824.90909043,0,4397.33333289,135.999999986,42.0,42.0,?
2017-08-07 12:02:20.217011,4559.09090864,3717.33333296,3926.99999961,4195.39393897,3863.12121173,440.969696926,3870.33333295,655.272727207,4289.66666624,502.787878738,4439.57575713,131.878787866,4237.1212117,3408.2424239,4373.12121168,3008.48484818,5177.27272675,3606.0606057,4183.03030261,440.969696926,4439.57575713,4162.42424201,4232.99999958,0,4834.1818177,0,4399.90909047,135.999999986,42.0,42.0,?
2017-08-07 12:02:20.231638,4561.66666621,3717.33333296,3938.33333294,4195.39393897,3872.90909052,440.969696926,3870.33333295,655.272727207,4295.84848442,502.787878738,4446.27272683,131.878787866,4230.93939352,3408.2424239,4377.2424238,3008.48484818,5182.93939342,3606.0606057,4184.06060564,440.969696926,4445.2424238,4162.42424201,4237.1212117,61.818181812,4838.81818133,0,4405.06060562,135.999999986,42.0,42.0,?
2017-08-07 12:02:20.233647,4557.03030257,3717.33333296,3949.15151476,4195.39393897,3893.51515113,440.969696926,3875.4848481,655.272727207,4284.51515109,502.787878738,4434.9393935,131.878787866,4215.99999958,3408.2424239,4367.96969653,3008.48484818,5176.75757524,3606.0606057,4175.30302989,440.969696926,4436.99999956,4162.42424201,4228.36363594,61.818181812,4830.06060558,3202.18181786,4405.57575714,135.999999986,42.0,42.0,?
2017-08-07 12:02:20.246548,4554.96969651,3717.33333296,3946.57575718,4195.39393897,3899.18181779,440.969696926,3877.54545416,655.272727207,4279.36363594,502.787878738,4433.90909047,131.878787866,4213.93939352,3408.2424239,4359.21212078,3008.48484818,5170.57575706,3606.0606057,4160.87878746,440.969696926,4428.2424238,4162.42424201,4221.15151473,61.818181812,4821.81818134,3202.18181786,4403.51515107,135.999999986,42.0,42.0,?
2017-08-07 12:02:20.259577,4557.03030257,3717.33333296,3950.18181779,4195.39393897,3894.03030264,440.969696926,3875.99999961,655.272727207,4287.60606018,502.787878738,4444.21212077,131.878787866,4222.69696927,3408.2424239,4361.27272684,3008.48484818,5174.69696918,3606.0606057,4155.2121208,440.969696926,4428.75757531,4166.54545413,4220.63636321,61.818181812,4821.81818134,3202.18181786,4404.54545411,135.999999986,42.0,42.0,?
2017-08-07 12:02:20.264025,4560.12121167,3717.33333296,3960.48484809,4195.39393897,3891.96969658,440.969696926,3877.54545416,655.272727207,4288.63636321,502.787878738,4444.21212077,131.878787866,4230.93939352,3408.2424239,4367.45454502,3008.48484818,5174.18181766,3606.0606057,4157.78787837,440.969696926,4429.78787834,4166.54545413,4221.66666624,61.818181812,4825.42424194,3202.18181786,4409.18181774,135.999999986,42.0,42.0,?
2017-08-07 12:02:20.267245,4559.60606015,3717.33333296,3959.96969657,4195.39393897,3887.33333294,440.969696926,3880.12121173,655.272727207,4283.48484806,502.787878738,4442.66666622,131.878787866,4233.51515109,3408.2424239,4366.9393935,3008.48484818,5163.36363585,3606.0606057,4154.18181777,440.969696926,4428.75757531,4166.54545413,4219.09090867,61.818181812,4826.96969649,3202.18181786,4406.09090865,135.999999986,42.0,42.0,?
2017-08-07 12:02:20.272910,4557.54545409,3717.33333296,3958.42424203,4195.39393897,3879.60606022,440.969696926,3876.51515113,655.272727207,4282.45454503,502.787878738,4441.63636319,131.878787866,4225.78787837,3408.2424239,4360.24242381,3008.48484818,5155.63636312,3606.0606057,4147.99999959,440.969696926,4428.2424238,4166.54545413,4211.87878746,61.818181812,4824.90909043,3202.18181786,4394.2424238,135.999999986,42.0,42.0,?
2017-08-07 12:02:20.280922,4554.454545,3717.33333296,3960.48484809,4195.39393897,3875.99999961,440.969696926,3869.30302992,655.272727207,4283.99999957,502.787878738,4433.90909047,131.878787866,4219.60606018,3408.2424239,4360.75757532,3008.48484818,5155.63636312,3606.0606057,4149.03030262,440.969696926,4428.75757531,4166.54545413,4205.18181776,61.818181812,4823.8787874,3202.18181786,4390.6363632,135.999999986,42.0,42.0,?
2017-08-07 12:02:20.289264,4554.96969651,3717.33333296,3959.96969657,4195.39393897,3876.51515113,440.969696926,3869.30302992,655.272727207,4282.96969654,502.787878738,4432.36363592,131.878787866,4224.75757534,3408.2424239,4363.84848441,3008.48484818,5157.69696918,3606.0606057,4152.63636322,440.969696926,4428.2424238,4166.54545413,4203.63636322,61.818181812,4824.90909043,3202.18181786,4398.36363592,135.999999986,42.0,42.0,?
2017-08-07 12:02:20.297073,4557.03030257,3717.33333296,3966.15151475,4195.39393897,3879.0909087,440.969696926,3879.0909087,655.272727207,4283.99999957,502.787878738,4442.15151471,131.878787866,4226.30302988,3408.2424239,4363.3333329,3008.48484818,5157.69696918,3606.0606057,4151.09090868,440.969696926,4428.2424238,4166.54545413,4206.21212079,61.818181812,4822.84848437,3202.18181786,4403.51515107,135.999999986,42.0,42.0,?
2017-08-07 12:02:20.303593,4556.51515106,3717.33333296,3975.42424203,4195.39393897,3874.45454507,440.969696926,3880.12121173,655.272727207,4285.54545412,502.787878738,4443.18181774,131.878787866,4219.60606018,3408.2424239,4360.24242381,3008.48484818,5157.18181767,3606.0606057,4151.60606019,440.969696926,4426.69696925,4166.54545413,4204.66666625,61.818181812,4820.78787831,3202.18181786,4406.60606017,135.999999986,42.0,42.0,?
2017-08-07 12:02:20.311221,4554.454545,3717.33333296,3974.90909051,4195.39393897,3864.66666628,440.969696926,3874.45454507,655.272727207,4282.96969654,502.787878738,4439.06060562,131.878787866,4214.96969655,3408.2424239,4358.18181775,3008.48484818,5156.66666615,3606.0606057,4151.09090868,440.969696926,4424.63636319,4166.54545413,4205.69696928,61.818181812,4821.30302982,3202.18181786,4412.27272683,135.999999986,42.0,42.0,?
2017-08-07 12:02:20.319057,4552.39393894,3717.33333296,3972.84848445,4195.39393897,3863.63636325,440.969696926,3878.06060567,655.272727207,4281.424242,502.787878738,4441.63636319,131.878787866,4222.18181776,3408.2424239,4359.72727229,3008.48484818,5158.2121207,3606.0606057,4147.99999959,440.969696926,4424.12121168,4166.54545413,4215.99999958,61.818181812,4822.84848437,3202.18181786,4414.84848441,135.999999986,42.0,42.0,?
2017-08-07 12:02:20.327784,4552.90909045,3717.33333296,3977.9999996,4195.39393897,3867.24242386,440.969696926,3881.66666628,655.272727207,4283.48484806,502.787878738,4444.21212077,131.878787866,4235.06060564,3408.2424239,4364.87878744,3008.48484818,5159.24242373,3606.0606057,4150.06060565,440.969696926,4425.15151471,4166.54545413,4217.03030261,61.818181812,4823.8787874,3202.18181786,4419.99999956,135.999999986,42.0,42.0,?
2017-08-07 12:02:20.335677,4554.454545,3717.33333296,3985.21212081,4195.39393897,3862.60606022,440.969696926,3876.51515113,655.272727207,4281.93939351,502.787878738,4443.69696925,131.878787866,4239.18181776,3408.2424239,4370.03030259,3008.48484818,5159.24242373,3606.0606057,4151.60606019,440.969696926,4422.57575713,4166.54545413,4206.21212079,61.818181812,4824.39393891,3202.18181786,4431.33333289,135.999999986,42.0,42.0,?
2017-08-07 12:02:20.355986,4551.87878742,3717.33333296,3989.84848445,4195.39393897,3855.39393901,440.969696926,3871.87878749,655.272727207,4277.81818139,502.787878738,4443.18181774,131.878787866,4237.1212117,3408.2424239,4373.6363632,3008.48484818,5155.12121161,3606.0606057,4144.39393898,440.969696926,4415.36363592,4166.54545413,4200.54545413,61.818181812,4819.24242376,3202.18181786,4430.81818138,135.999999986,42.0,42.0,?
2017-08-07 12:02:20.362792,4545.18181773,3717.33333296,3989.33333293,4195.39393897,3854.36363598,440.969696926,3872.90909052,655.272727207,4281.424242,502.787878738,4439.57575713,131.878787866,4236.09090867,3408.2424239,4371.06060562,3008.48484818,5143.78787827,3606.0606057,4137.69696928,440.969696926,4411.75757532,4166.54545413,4195.90909049,61.818181812,4813.57575709,3202.18181786,4425.66666622,135.999999986,42.0,42.0,?
2017-08-07 12:02:20.370223,4542.60606015,3717.33333296,3989.33333293,4195.39393897,3857.45454507,440.969696926,3871.87878749,655.272727207,4285.0303026,502.787878738,4431.33333289,131.878787866,4230.93939352,3408.2424239,4363.84848441,3008.48484818,5140.18181767,3606.0606057,4143.36363595,440.969696926,4414.33333289,4166.54545413,4189.72727231,61.818181812,4816.15151467,3202.18181786,4430.30302986,135.999999986,42.0,42.0,?
2017-08-07 12:02:20.379858,4545.69696924,3717.33333296,3997.57575718,4195.39393897,3856.93939355,440.969696926,3867.24242386,655.272727207,4280.90909048,502.787878738,4432.36363592,131.878787866,4222.18181776,3408.2424239,4361.78787835,3008.48484818,5141.2121207,3606.0606057,4147.48484807,440.969696926,4413.81818138,4166.54545413,4190.75757534,61.818181812,4817.1818177,3202.18181786,4432.36363592,135.999999986,42.0,42.0,?
2017-08-07 12:02:20.383107,4545.18181773,3717.33333296,3999.12121172,4195.39393897,3850.24242386,440.969696926,3865.1818178,655.272727207,4276.78787836,502.787878738,4436.99999956,131.878787866,4220.63636321,3408.2424239,4360.24242381,3008.48484818,5131.93939343,3606.0606057,4140.78787837,440.969696926,4407.12121168,4166.54545413,4189.72727231,61.818181812,4808.93939346,3202.18181786,4428.2424238,135.999999986,42.0,42.0,?
2017-08-07 12:02:20.388502,4542.09090864,3717.33333296,3998.60606021,4195.39393897,3850.75757537,440.969696926,3865.69696931,655.272727207,4278.33333291,502.787878738,4433.90909047,131.878787866,4228.87878746,3408.2424239,4358.69696926,3008.48484818,5122.66666615,3606.0606057,4142.84848443,440.969696926,4407.12121168,4166.54545413,4185.60606019,61.818181812,4807.90909043,3202.18181786,4430.81818138,135.999999986,42.0,42.0,?
2017-08-07 12:02:20.392043,4545.18181773,3717.33333296,4009.93939354,4195.39393897,3858.4848481,440.969696926,3872.90909052,655.272727207,4281.93939351,502.787878738,4435.45454501,131.878787866,4237.1212117,3408.2424239,4366.42424199,3008.48484818,5129.36363585,3606.0606057,4154.69696928,440.969696926,4419.48484804,4166.54545413,4192.30302988,61.818181812,4817.1818177,3202.18181786,4434.9393935,135.999999986,42.0,42.0,?
2017-08-07 12:02:20.397429,4547.24242379,3717.33333296,4016.12121172,4195.39393897,3857.96969658,440.969696926,3879.0909087,655.272727207,4282.45454503,502.787878738,4441.12121168,131.878787866,4234.54545412,3408.2424239,4368.99999956,3008.48484818,5133.48484797,3606.0606057,4158.8181814,440.969696926,4419.48484804,4166.54545413,4194.87878746,61.818181812,4816.15151467,3202.18181786,4434.42424198,135.999999986,42.0,42.0,?
2017-08-07 12:02:20.406910,4541.57575712,3717.33333296,4009.93939354,4195.39393897,3849.72727234,440.969696926,3873.42424204,655.272727207,4279.87878745,502.787878738,4443.69696925,131.878787866,4230.93939352,3408.2424239,4362.30302987,3008.48484818,5122.15151464,3606.0606057,4151.60606019,440.969696926,4406.09090865,4166.54545413,4186.1212117,61.818181812,4805.84848437,3202.18181786,4432.87878744,135.999999986,42.0,42.0,?
2017-08-07 12:02:20.415743,4539.51515106,3717.33333296,4011.48484808,4195.39393897,3846.63636325,440.969696926,3865.1818178,655.272727207,4278.33333291,502.787878738,4447.30302986,131.878787866,4238.66666624,3408.2424239,4366.42424199,3008.48484818,5118.54545403,3606.0606057,4151.09090868,440.969696926,4404.03030259,4166.54545413,4188.69696928,61.818181812,4805.84848437,3202.18181786,4432.36363592,135.999999986,42.0,42.0,?
2017-08-07 12:02:20.424820,4544.66666621,3717.33333296,4022.3030299,4195.39393897,3851.7878784,440.969696926,3868.27272689,655.272727207,4284.51515109,502.787878738,4444.72727228,131.878787866,4236.60606018,3408.2424239,4370.03030259,3008.48484818,5125.75757525,3606.0606057,4157.78787837,440.969696926,4415.36363592,4166.54545413,4204.66666625,61.818181812,4811.51515103,3202.18181786,4433.90909047,135.999999986,42.0,42.0,?
2017-08-07 12:02:20.430022,4546.21212076,3717.33333296,4027.96969657,4195.39393897,3855.90909052,440.969696926,3871.87878749,655.272727207,4285.0303026,502.787878738,4434.42424198,131.878787866,4221.15151473,3408.2424239,4362.30302987,3008.48484818,5125.75757525,3606.0606057,4156.75757534,440.969696926,4419.99999956,4166.54545413,4213.93939352,61.818181812,4815.12121164,3202.18181786,4435.45454501,135.999999986,42.0,42.0,?
2017-08-07 12:02:20.437028,4546.21212076,3717.33333296,4028.48484808,4195.39393897,3853.33333295,440.969696926,3869.30302992,655.272727207,4271.12121169,502.787878738,4428.75757531,131.878787866,4216.51515109,3408.2424239,4358.69696926,3008.48484818,5118.03030252,3606.0606057,4155.2121208,440.969696926,4416.39393895,4166.54545413,4207.75757534,61.818181812,4817.1818177,3202.18181786,4432.87878744,135.999999986,42.0,42.0,?
2017-08-07 12:02:20.444055,4549.30302985,3717.33333296,4031.57575717,4195.39393897,3850.24242386,440.969696926,3867.24242386,655.272727207,4266.48484806,502.787878738,4431.33333289,131.878787866,4223.7272723,3408.2424239,4361.78787835,3008.48484818,5111.33333282,3606.0606057,4157.27272686,440.969696926,4417.42424198,4166.54545413,4196.93939352,61.818181812,4817.69696922,3202.18181786,4432.87878744,135.999999986,42.0,42.0,?
2017-08-07 12:02:20.453820,4547.7575753,3717.33333296,4035.69696929,4195.39393897,3854.87878749,440.969696926,3867.24242386,655.272727207,4275.75757533,502.787878738,4431.84848441,131.878787866,4224.75757534,3408.2424239,4360.24242381,3008.48484818,5102.57575707,3606.0606057,4156.75757534,440.969696926,4415.87878744,4166.54545413,4190.24242382,61.818181812,4814.09090861,3202.18181786,4432.87878744,135.999999986,42.0,42.0,?
2017-08-07 12:02:20.466999,4542.60606015,3717.33333296,4038.27272687,4195.39393897,3856.42424204,440.969696926,3866.21212083,655.272727207,4273.69696927,502.787878738,4434.9393935,131.878787866,4218.06060564,3408.2424239,4356.6363632,3008.48484818,5093.81818131,3606.0606057,4155.72727231,440.969696926,4410.21212077,4166.54545413,4185.09090867,61.818181812,4810.99999952,3202.18181786,4425.66666622,135.999999986,42.0,42.0,?
2017-08-07 12:02:20.470848,4547.24242379,3717.33333296,4038.27272687,4195.39393897,3852.81818143,440.969696926,3868.27272689,655.272727207,4267.51515109,502.787878738,4441.63636319,131.878787866,4217.03030261,3408.2424239,4354.57575714,3008.48484818,5089.18181767,3606.0606057,4157.78787837,440.969696926,4414.33333289,4166.54545413,4178.39393898,61.818181812,4814.60606012,3202.18181786,4424.12121168,135.999999986,42.0,42.0,?
2017-08-07 12:02:20.482570,4552.39393894,3717.33333296,4039.81818141,4195.39393897,3855.90909052,440.969696926,3870.84848446,655.272727207,4275.75757533,502.787878738,4443.69696925,131.878787866,4218.06060564,3408.2424239,4351.48484805,3008.48484818,5087.63636313,3606.0606057,4158.8181814,440.969696926,4421.5454541,4166.54545413,4179.42424201,61.818181812,4819.24242376,3202.18181786,4433.39393895,135.999999986,42.0,42.0,?
2017-08-07 12:02:20.486514,4550.33333288,3717.33333296,4048.06060566,4195.39393897,3859.51515113,440.969696926,3869.81818143,655.272727207,4282.45454503,502.787878738,4441.63636319,131.878787866,4218.57575715,3408.2424239,4354.06060563,3008.48484818,5088.66666616,3606.0606057,4157.27272686,440.969696926,4418.96969653,4166.54545413,4186.1212117,61.818181812,4817.69696922,3202.18181786,4435.45454501,135.999999986,42.0,42.0,?
2017-08-07 12:02:20.495660,4551.36363591,3717.33333296,4058.36363596,4195.39393897,3860.54545416,440.969696926,3872.39393901,655.272727207,4283.99999957,502.787878738,4445.75757531,131.878787866,4226.8181814,3408.2424239,4365.90909047,3008.48484818,5091.75757525,3606.0606057,4161.39393898,440.969696926,4418.45454501,4166.54545413,4185.60606019,61.818181812,4818.72727225,3202.18181786,4431.33333289,135.999999986,42.0,42.0,?
2017-08-07 12:02:20.499767,4552.39393894,3717.33333296,4059.39393899,4195.39393897,3864.66666628,440.969696926,3875.99999961,655.272727207,4282.96969654,502.787878738,4448.8484844,131.878787866,4236.09090867,3408.2424239,4370.03030259,3008.48484818,5096.39393888,3606.0606057,4164.99999958,440.969696926,4424.12121168,4166.54545413,4193.84848443,61.818181812,4822.84848437,3202.18181786,4430.81818138,135.999999986,42.0,42.0,?
2017-08-07 12:02:20.508604,4545.18181773,3717.33333296,4052.69696929,4195.39393897,3863.12121173,440.969696926,3873.42424204,655.272727207,4271.12121169,502.787878738,4438.03030259,131.878787866,4233.51515109,3408.2424239,4365.39393896,3008.48484818,5098.96969646,3606.0606057,4159.33333292,440.969696926,4421.03030259,4166.54545413,4217.54545412,61.818181812,4819.75757528,3202.18181786,4426.69696925,135.999999986,42.0,42.0,?
2017-08-07 12:02:20.519059,4542.60606015,3717.33333296,4056.3030299,4195.39393897,3860.54545416,440.969696926,3874.45454507,655.272727207,4271.12121169,502.787878738,4437.51515107,131.878787866,4236.60606018,3408.2424239,4372.60606017,3008.48484818,5103.6060601,3606.0606057,4155.2121208,440.969696926,4419.48484804,4166.54545413,4228.36363594,61.818181812,4816.66666619,3202.18181786,4425.66666622,135.999999986,42.0,42.0,?
2017-08-07 12:02:20.525792,4552.39393894,3717.33333296,4068.66666626,4195.39393897,3866.72727234,440.969696926,3881.15151476,655.272727207,4282.45454503,502.787878738,4447.81818137,131.878787866,4243.30302988,3408.2424239,4379.81818138,3008.48484818,5106.69696919,3606.0606057,4159.33333292,440.969696926,4425.66666622,4166.54545413,4222.69696927,61.818181812,4819.75757528,3202.18181786,4432.87878744,135.999999986,42.0,42.0,?
2017-08-07 12:02:20.533935,4553.93939348,3717.33333296,4071.24242384,4195.39393897,3868.27272689,440.969696926,3880.12121173,655.272727207,4278.33333291,502.787878738,4441.12121168,131.878787866,4227.84848443,3408.2424239,4365.39393896,3008.48484818,5090.2121207,3606.0606057,4159.84848443,440.969696926,4424.12121168,4166.54545413,4215.48484806,61.818181812,4819.75757528,3202.18181786,4432.87878744,135.999999986,42.0,42.0,?
2017-08-07 12:02:20.547073,4549.30302985,3717.33333296,4072.78787838,4195.39393897,3872.39393901,440.969696926,3879.0909087,655.272727207,4286.57575715,502.787878738,4447.30302986,131.878787866,4232.99999958,3408.2424239,4364.87878744,3008.48484818,5071.15151464,3606.0606057,4161.39393898,440.969696926,4418.45454501,4166.54545413,4189.72727231,61.818181812,4817.69696922,3202.18181786,4429.27272683,135.999999986,42.0,42.0,?
2017-08-07 12:02:20.547611,4549.30302985,3717.33333296,4072.78787838,4195.39393897,3872.39393901,440.969696926,3879.0909087,655.272727207,4286.57575715,502.787878738,4447.30302986,131.878787866,4232.99999958,3408.2424239,4364.87878744,3008.48484818,5071.15151464,3606.0606057,4161.39393898,440.969696926,4418.45454501,4166.54545413,4189.72727231,61.818181812,4817.69696922,3202.18181786,4429.27272683,135.999999986,42.0,42.0,?
2017-08-07 12:02:20.554008,4555.99999954,3717.33333296,4077.93939353,4195.39393897,3881.15151476,440.969696926,3881.15151476,655.272727207,4287.09090866,502.787878738,4452.96969652,131.878787866,4238.15151473,3408.2424239,4372.60606017,3008.48484818,5080.93939343,3606.0606057,4169.63636322,440.969696926,4424.12121168,4166.54545413,4193.33333291,61.818181812,4820.78787831,3202.18181786,4433.39393895,135.999999986,42.0,42.0,?
2017-08-07 12:02:20.561875,4558.57575712,3717.33333296,4079.99999959,4195.39393897,3877.03030264,440.969696926,3881.15151476,655.272727207,4277.81818139,502.787878738,4444.21212077,131.878787866,4227.33333291,3408.2424239,4370.03030259,3008.48484818,5078.36363586,3606.0606057,4168.09090867,440.969696926,4428.75757531,4166.54545413,4204.15151473,61.818181812,4822.84848437,3202.18181786,4433.39393895,135.999999986,42.0,42.0,?
2017-08-07 12:02:20.573022,4556.51515106,3717.33333296,4085.66666626,4195.39393897,3870.84848446,440.969696926,3880.12121173,655.272727207,4279.87878745,502.787878738,4444.21212077,131.878787866,4228.36363594,3408.2424239,4367.96969653,3008.48484818,5078.36363586,3606.0606057,4162.42424201,440.969696926,4429.78787834,4166.54545413,4207.75757534,61.818181812,4823.8787874,3202.18181786,4431.33333289,135.999999986,42.0,42.0,?
2017-08-07 12:02:20.579112,4550.33333288,3717.33333296,4085.15151474,4195.39393897,3868.27272689,440.969696926,3878.06060567,655.272727207,4282.45454503,502.787878738,4452.96969652,131.878787866,4235.57575715,3408.2424239,4367.45454502,3008.48484818,5077.84848434,3606.0606057,4155.72727231,440.969696926,4422.06060562,4166.54545413,4202.09090867,61.818181812,4820.27272679,3202.18181786,4423.60606016,135.999999986,42.0,42.0,?
2017-08-07 12:02:20.586075,4552.39393894,3717.33333296,4088.24242383,4195.39393897,3865.1818178,440.969696926,3879.0909087,655.272727207,4282.96969654,502.787878738,4451.93939349,131.878787866,4236.60606018,3408.2424239,4381.87878744,3008.48484818,5062.39393889,3606.0606057,4167.06060564,440.969696926,4421.5454541,4166.54545413,4203.1212117,61.818181812,4821.81818134,3202.18181786,4425.15151471,135.999999986,42.0,42.0,?
2017-08-07 12:02:20.595113,4552.39393894,3717.33333296,4088.24242383,4195.39393897,3865.1818178,440.969696926,3879.0909087,655.272727207,4282.96969654,502.787878738,4451.93939349,131.878787866,4236.60606018,3408.2424239,4381.87878744,3008.48484818,5062.39393889,3606.0606057,4167.06060564,440.969696926,4421.5454541,4166.54545413,4203.1212117,61.818181812,4821.81818134,3202.18181786,4425.15151471,135.999999986,42.0,42.0,?
2017-08-07 12:02:20.603354,4553.42424197,3717.33333296,4097.51515111,4195.39393897,3868.7878784,440.969696926,3880.63636325,655.272727207,4281.93939351,502.787878738,4445.2424238,131.878787866,4233.51515109,3408.2424239,4378.78787835,3008.48484818,5063.93939343,3606.0606057,4169.63636322,440.969696926,4429.27272683,4166.54545413,4205.69696928,61.818181812,4824.90909043,3202.18181786,4427.21212077,135.999999986,42.0,42.0,?
2017-08-07 12:02:20.609142,4552.90909045,3717.33333296,4095.45454505,4195.39393897,3866.72727234,440.969696926,3878.57575719,655.272727207,4279.87878745,502.787878738,4443.69696925,131.878787866,4235.06060564,3408.2424239,4377.2424238,3008.48484818,5060.33333283,3606.0606057,4169.63636322,440.969696926,4424.63636319,4166.54545413,4207.24242382,61.818181812,4822.84848437,3202.18181786,4416.90909047,135.999999986,42.0,42.0,?
2017-08-07 12:02:20.617965,4552.90909045,3717.33333296,4091.84848444,4195.39393897,3864.66666628,440.969696926,3876.51515113,655.272727207,4274.7272723,502.787878738,4439.06060562,131.878787866,4236.60606018,3408.2424239,4373.12121168,3008.48484818,5061.36363586,3606.0606057,4172.72727231,440.969696926,4422.06060562,4166.54545413,4218.57575715,61.818181812,4820.27272679,3202.18181786,4414.84848441,135.999999986,42.0,42.0,?
2017-08-07 12:02:20.627452,4548.27272682,3717.33333296,4094.42424201,4195.39393897,3867.75757537,440.969696926,3873.42424204,655.272727207,4268.0303026,502.787878738,4433.39393895,131.878787866,4222.18181776,3408.2424239,4366.42424199,3008.48484818,5063.93939343,3606.0606057,4167.06060564,440.969696926,4426.18181774,4166.54545413,4230.93939352,61.818181812,4818.72727225,3202.18181786,4422.06060562,135.999999986,42.0,42.0,?
2017-08-07 12:02:20.634488,4544.1515147,3721.45454508,4096.99999959,4195.39393897,3866.72727234,440.969696926,3868.27272689,655.272727207,4265.45454503,502.787878738,4435.96969653,131.878787866,4215.48484806,3408.2424239,4364.87878744,3008.48484818,5057.75757525,3606.0606057,4155.72727231,440.969696926,4421.03030259,4166.54545413,4222.18181776,61.818181812,4818.21212073,3202.18181786,4421.03030259,135.999999986,42.0,42.0,?
2017-08-07 12:02:20.641018,4544.66666621,3721.45454508,4095.96969656,4187.15151473,3860.03030264,440.969696926,3865.1818178,655.272727207,4267.51515109,502.787878738,4442.66666622,131.878787866,4227.84848443,3408.2424239,4364.87878744,3008.48484818,5048.9999995,3606.0606057,4157.78787837,440.969696926,4414.33333289,4166.54545413,4207.75757534,61.818181812,4816.66666619,3202.18181786,4414.84848441,135.999999986,42.0,42.0,?
2017-08-07 12:02:20.661530,4546.72727227,3721.45454508,4095.45454505,4187.15151473,3860.54545416,440.969696926,3868.27272689,655.272727207,4273.69696927,502.787878738,4443.69696925,131.878787866,4231.45454503,3408.2424239,4360.24242381,3008.48484818,5043.33333283,3606.0606057,4163.45454504,440.969696926,4418.96969653,4166.54545413,4207.24242382,61.818181812,4815.63636315,3202.18181786,4414.33333289,140.121212107,42.0,42.0,?
2017-08-07 12:02:20.661683,4548.78787833,3721.45454508,4103.69696929,4187.15151473,3857.45454507,428.606060563,3868.7878784,647.030302966,4279.36363594,502.787878738,4445.2424238,131.878787866,4224.75757534,3408.2424239,4362.30302987,3008.48484818,5025.81818132,3606.0606057,4157.27272686,440.969696926,4415.36363592,4166.54545413,4192.8181814,61.818181812,4816.15151467,3202.18181786,4416.90909047,140.121212107,42.0,42.0,?
2017-08-07 12:02:20.663239,4548.78787833,3721.45454508,4103.69696929,4187.15151473,3857.45454507,428.606060563,3868.7878784,647.030302966,4279.36363594,502.787878738,4445.2424238,131.878787866,4224.75757534,3408.2424239,4362.30302987,3008.48484818,5025.81818132,3606.0606057,4157.27272686,440.969696926,4415.36363592,4166.54545413,4192.8181814,61.818181812,4816.15151467,3202.18181786,4416.90909047,140.121212107,42.0,42.0,?
2017-08-07 12:02:20.671324,4540.54545409,3721.45454508,4100.6060602,4187.15151473,3853.84848446,428.606060563,3866.72727234,647.030302966,4269.06060563,506.909090858,4440.09090865,131.878787866,4221.66666624,3408.2424239,4360.24242381,3008.48484818,5027.36363586,3606.0606057,4156.24242383,440.969696926,4408.66666623,4166.54545413,4202.09090867,61.818181812,4805.84848437,3202.18181786,4409.18181774,140.121212107,42.0,42.0,?
2017-08-07 12:02:20.681167,4537.96969652,3721.45454508,4100.6060602,4187.15151473,3854.36363598,428.606060563,3865.69696931,647.030302966,4268.0303026,506.909090858,4432.36363592,131.878787866,4219.60606018,3408.2424239,4361.27272684,3008.48484818,5024.78787829,3606.0606057,4151.60606019,440.969696926,4402.48484804,4166.54545413,4201.57575716,61.818181812,4800.69696922,3202.18181786,4403.51515107,140.121212107,42.0,42.0,?
2017-08-07 12:02:20.687540,4543.12121167,3721.45454508,4106.27272686,4187.15151473,3856.93939355,428.606060563,3866.72727234,647.030302966,4268.54545412,506.909090858,4429.78787834,131.878787866,4219.60606018,3408.2424239,4363.3333329,3008.48484818,5010.87878738,3606.0606057,4155.2121208,440.969696926,4401.96969653,4166.54545413,4181.99999958,61.818181812,4805.84848437,3202.18181786,4405.06060562,140.121212107,42.0,42.0,?
2017-08-07 12:02:20.696242,4545.69696924,3721.45454508,4110.39393898,4187.15151473,3862.0909087,428.606060563,3867.75757537,647.030302966,4265.45454503,506.909090858,4429.78787834,131.878787866,4209.8181814,3408.2424239,4359.21212078,3012.6060603,5005.21212071,3606.0606057,4167.57575716,440.969696926,4409.18181774,4166.54545413,4174.27272686,61.818181812,4810.484848,3202.18181786,4410.21212077,140.121212107,42.0,42.0,?
2017-08-07 12:02:20.702694,4543.63636318,3721.45454508,4111.93939353,4187.15151473,3865.1818178,428.606060563,3867.24242386,647.030302966,4265.45454503,506.909090858,4429.27272683,131.878787866,4201.06060564,3408.2424239,4355.60606017,3012.6060603,5004.18181768,3651.39393903,4166.03030261,440.969696926,4412.27272683,4166.54545413,4177.36363595,61.818181812,4806.8787874,3202.18181786,4413.81818138,140.121212107,42.0,42.0,?
2017-08-07 12:02:20.712905,4538.99999955,3721.45454508,4107.81818141,4187.15151473,3860.54545416,428.606060563,3863.63636325,647.030302966,4264.424242,506.909090858,4430.30302986,131.878787866,4203.63636322,3408.2424239,4355.60606017,3012.6060603,4995.42424192,3651.39393903,4155.2121208,428.606060563,4406.09090865,4166.54545413,4171.18181776,61.818181812,4802.24242376,3202.18181786,4407.6363632,140.121212107,42.0,42.0,?
2017-08-07 12:02:20.719226,4531.78787833,3721.45454508,4101.12121171,4187.15151473,3851.7878784,428.606060563,3862.0909087,647.030302966,4261.84848442,506.909090858,4428.75757531,131.878787866,4206.21212079,3408.2424239,4354.06060563,3012.6060603,4991.81818132,3651.39393903,4153.66666625,428.606060563,4400.42424198,4158.30302989,4172.72727231,61.818181812,4802.24242376,3202.18181786,4398.87878744,140.121212107,42.0,42.0,?
2017-08-07 12:02:20.730368,4531.78787833,3721.45454508,4104.72727232,4187.15151473,3848.1818178,428.606060563,3863.12121173,647.030302966,4262.36363594,506.909090858,4428.2424238,131.878787866,4204.15151473,3408.2424239,4357.66666623,3012.6060603,4994.90909041,3651.39393903,4158.8181814,428.606060563,4402.99999956,4158.30302989,4173.75757534,49.4545454496,4805.84848437,3202.18181786,4399.90909047,140.121212107,42.0,42.0,?
2017-08-07 12:02:20.734650,4538.99999955,3721.45454508,4111.42424201,4187.15151473,3850.75757537,428.606060563,3863.12121173,647.030302966,4272.15151472,506.909090858,4435.45454501,131.878787866,4204.15151473,3408.2424239,4365.90909047,3012.6060603,4979.45454496,3651.39393903,4160.87878746,428.606060563,4406.60606017,4158.30302989,4151.09090868,49.4545454496,4806.8787874,3206.30302998,4403.51515107,140.121212107,42.0,42.0,?
2017-08-07 12:02:20.746319,4538.99999955,3721.45454508,4111.93939353,4187.15151473,3854.36363598,428.606060563,3864.66666628,647.030302966,4282.45454503,506.909090858,4448.8484844,131.878787866,4210.84848443,3408.2424239,4367.96969653,3012.6060603,4960.3939389,3651.39393903,4160.36363595,428.606060563,4404.03030259,4158.30302989,4130.99999959,49.4545454496,4804.81818134,3206.30302998,4401.96969653,140.121212107,42.0,42.0,?
2017-08-07 12:02:20.753421,4540.03030258,3721.45454508,4115.03030262,4187.15151473,3852.30302992,428.606060563,3866.72727234,647.030302966,4275.24242381,506.909090858,4451.93939349,131.878787866,4213.93939352,3408.2424239,4367.45454502,3012.6060603,4967.60606011,3651.39393903,4161.90909049,428.606060563,4404.54545411,4162.42424201,4139.24242383,49.4545454496,4811.51515103,3206.30302998,4402.99999956,140.121212107,42.0,42.0,?
2017-08-07 12:02:20.759541,4544.1515147,3721.45454508,4122.75757535,4187.15151473,3850.24242386,428.606060563,3865.1818178,647.030302966,4261.33333291,506.909090858,4436.48484804,131.878787866,4205.69696928,3408.2424239,4364.36363593,3012.6060603,4976.36363587,3651.39393903,4158.8181814,428.606060563,4409.18181774,4162.42424201,4146.45454504,49.4545454496,4817.69696922,3206.30302998,4404.54545411,140.121212107,42.0,42.0,?
2017-08-07 12:02:20.773756,4540.03030258,3721.45454508,4124.81818141,4187.15151473,3852.81818143,428.606060563,3861.57575719,647.030302966,4262.87878745,506.909090858,4428.2424238,131.878787866,4198.99999958,3408.2424239,4358.69696926,3012.6060603,4964.51515102,3651.39393903,4153.66666625,428.606060563,4406.09090865,4162.42424201,4139.75757534,49.4545454496,4813.06060558,3206.30302998,4396.30302986,140.121212107,42.0,42.0,?
2017-08-07 12:02:20.776081,4534.87878743,3721.45454508,4122.75757535,4187.15151473,3853.84848446,428.606060563,3862.60606022,647.030302966,4270.60606018,506.909090858,4441.12121168,131.878787866,4207.24242382,3408.2424239,4363.84848441,3012.6060603,4968.63636314,3651.39393903,4155.72727231,428.606060563,4404.54545411,4162.42424201,4156.24242383,49.4545454496,4810.99999952,3206.30302998,4390.12121168,140.121212107,42.0,42.0,?
2017-08-07 12:02:20.780000,4538.99999955,3721.45454508,4123.78787838,4187.15151473,3853.84848446,428.606060563,3865.69696931,647.030302966,4270.60606018,506.909090858,4448.8484844,131.878787866,4220.63636321,3408.2424239,4375.69696926,3012.6060603,4989.24242374,3651.39393903,4162.42424201,428.606060563,4413.30302986,4162.42424201,4189.21212079,49.4545454496,4819.24242376,3206.30302998,4395.78787835,140.121212107,42.0,42.0,?
2017-08-07 12:02:20.787982,4542.09090864,3721.45454508,4124.30302989,4187.15151473,3857.96969658,428.606060563,3865.69696931,647.030302966,4266.48484806,506.909090858,4440.60606016,131.878787866,4218.06060564,3408.2424239,4372.60606017,3012.6060603,4989.75757526,3651.39393903,4160.87878746,428.606060563,4414.33333289,4162.42424201,4199.5151511,49.4545454496,4818.21212073,3206.30302998,4394.2424238,140.121212107,42.0,42.0,?
2017-08-07 12:02:20.796905,4535.39393894,3721.45454508,4124.81818141,4187.15151473,3860.54545416,428.606060563,3864.15151477,647.030302966,4264.424242,506.909090858,4433.39393895,131.878787866,4204.66666625,3408.2424239,4358.18181775,3012.6060603,4975.33333284,3651.39393903,4152.12121171,428.606060563,4402.99999956,4162.42424201,4188.18181776,49.4545454496,4805.33333285,3206.30302998,4380.84848441,140.121212107,42.0,42.0,?
2017-08-07 12:02:20.804567,4528.69696924,3721.45454508,4124.30302989,4187.15151473,3854.87878749,428.606060563,3859.51515113,647.030302966,4268.0303026,506.909090858,4430.81818138,131.878787866,4196.93939352,3408.2424239,4351.99999956,3012.6060603,4967.60606011,3651.39393903,4144.90909049,428.606060563,4394.75757532,4162.42424201,4175.30302989,49.4545454496,4798.63636316,3206.30302998,4378.78787835,140.121212107,42.0,42.0,?
2017-08-07 12:02:20.812606,4529.21212076,3721.45454508,4122.75757535,4187.15151473,3847.66666628,428.606060563,3855.90909052,647.030302966,4263.90909048,506.909090858,4428.2424238,131.878787866,4197.96969655,3408.2424239,4356.12121169,3012.6060603,4965.54545405,3651.39393903,4140.78787837,428.606060563,4394.75757532,4162.42424201,4174.78787837,49.4545454496,4798.63636316,3206.30302998,4386.51515108,140.121212107,42.0,42.0,?
2017-08-07 12:02:20.827845,4531.27272682,3721.45454508,4129.96969656,4187.15151473,3850.75757537,428.606060563,3861.06060567,647.030302966,4251.54545412,506.909090858,4428.2424238,131.878787866,4195.39393897,3408.2424239,4356.6363632,3012.6060603,4968.63636314,3651.39393903,4144.90909049,428.606060563,4396.81818138,4162.42424201,4187.15151473,49.4545454496,4798.63636316,3206.30302998,4385.48484805,140.121212107,42.0,42.0,?
2017-08-07 12:02:20.831131,4532.30302985,3721.45454508,4139.75757534,4187.15151473,3858.4848481,428.606060563,3866.21212083,647.030302966,4253.09090867,506.909090858,4427.21212077,131.878787866,4193.33333291,3408.2424239,4357.15151472,3012.6060603,4972.24242375,3651.39393903,4152.12121171,428.606060563,4399.90909047,4162.42424201,4197.96969655,49.4545454496,4800.1818177,3206.30302998,4384.96969653,140.121212107,42.0,42.0,?
2017-08-07 12:02:20.836257,4537.96969652,3721.45454508,4142.84848443,4187.15151473,3862.60606022,428.606060563,3863.12121173,647.030302966,4265.45454503,506.909090858,4427.72727228,131.878787866,4198.99999958,3408.2424239,4365.90909047,3012.6060603,4970.18181768,3651.39393903,4156.24242383,428.606060563,4407.12121168,4162.42424201,4199.5151511,49.4545454496,4810.484848,3206.30302998,4396.30302986,140.121212107,42.0,42.0,?
2017-08-07 12:02:20.847578,4544.66666621,3721.45454508,4147.99999959,4187.15151473,3865.1818178,428.606060563,3861.06060567,647.030302966,4264.424242,506.909090858,4431.33333289,131.878787866,4205.69696928,3408.2424239,4364.87878744,3012.6060603,4967.60606011,3651.39393903,4158.8181814,428.606060563,4417.9393935,4162.42424201,4203.63636322,49.4545454496,4820.78787831,3206.30302998,4400.42424198,140.121212107,42.0,42.0,?
2017-08-07 12:02:20.851919,4544.1515147,3721.45454508,4157.27272686,4187.15151473,3862.60606022,428.606060563,3863.63636325,647.030302966,4252.06060564,506.909090858,4430.81818138,131.878787866,4205.18181776,3408.2424239,4352.51515108,3012.6060603,4967.09090859,3651.39393903,4159.33333292,428.606060563,4418.96969653,4162.42424201,4209.30302988,49.4545454496,4820.78787831,3206.30302998,4395.27272683,140.121212107,42.0,42.0,?
2017-08-07 12:02:20.860655,4542.09090864,3721.45454508,4159.84848443,4187.15151473,3862.60606022,428.606060563,3864.66666628,647.030302966,4250.51515109,506.909090858,4426.69696925,131.878787866,4202.60606019,3408.2424239,4351.48484805,3012.6060603,4960.90909041,3651.39393903,4156.75757534,428.606060563,4411.2424238,4162.42424201,4203.1212117,49.4545454496,4815.12121164,3206.30302998,4393.21212077,140.121212107,42.0,42.0,?
2017-08-07 12:02:20.867022,4537.96969652,3721.45454508,4156.75757534,4187.15151473,3865.69696931,428.606060563,3863.63636325,647.030302966,4262.36363594,506.909090858,4429.27272683,131.878787866,4204.15151473,3408.2424239,4351.99999956,3012.6060603,4949.57575708,3651.39393903,4149.54545413,428.606060563,4405.57575714,4162.42424201,4186.1212117,49.4545454496,4811.51515103,3206.30302998,4388.06060562,140.121212107,42.0,42.0,?
2017-08-07 12:02:20.875524,4534.87878743,3721.45454508,4155.2121208,4187.15151473,3857.96969658,428.606060563,3862.60606022,647.030302966,4270.60606018,506.909090858,4438.5454541,131.878787866,4206.21212079,3408.2424239,4348.90909047,3012.6060603,4941.33333284,3651.39393903,4140.78787837,428.606060563,4403.51515107,4162.42424201,4175.30302989,49.4545454496,4807.90909043,3206.30302998,4381.36363593,140.121212107,42.0,42.0,?
2017-08-07 12:02:20.883064,4535.90909046,3721.45454508,4159.33333292,4187.15151473,3849.72727234,428.606060563,3863.12121173,647.030302966,4266.48484806,506.909090858,4438.5454541,131.878787866,4204.66666625,3408.2424239,4355.60606017,3012.6060603,4940.81818132,3651.39393903,4138.2121208,428.606060563,4401.45454501,4162.42424201,4180.45454504,49.4545454496,4805.33333285,3206.30302998,4378.78787835,140.121212107,42.0,42.0,?
2017-08-07 12:02:20.890545,4538.48484803,3721.45454508,4168.60606019,4187.15151473,3855.90909052,428.606060563,3864.15151477,647.030302966,4269.57575715,506.909090858,4434.42424198,131.878787866,4205.69696928,3408.2424239,4364.36363593,3012.6060603,4942.36363587,3651.39393903,4148.5151511,428.606060563,4404.54545411,4162.42424201,4194.36363594,49.4545454496,4809.96969649,3206.30302998,4380.3333329,140.121212107,42.0,42.0,?
2017-08-07 12:02:20.898798,4537.96969652,3721.45454508,4173.75757534,4187.15151473,3862.0909087,428.606060563,3864.66666628,647.030302966,4280.39393897,506.909090858,4442.66666622,131.878787866,4209.30302988,3408.2424239,4367.45454502,3012.6060603,4943.90909041,3651.39393903,4157.27272686,428.606060563,4409.69696926,4162.42424201,4203.63636322,49.4545454496,4813.06060558,3206.30302998,4383.9393935,140.121212107,42.0,42.0,?
2017-08-07 12:02:20.905960,4534.87878743,3721.45454508,4171.18181776,4187.15151473,3855.90909052,428.606060563,3864.66666628,647.030302966,4276.78787836,506.909090858,4448.33333289,131.878787866,4208.78787837,3408.2424239,4371.06060562,3012.6060603,4942.36363587,3651.39393903,4152.63636322,428.606060563,4405.06060562,4162.42424201,4195.39393897,49.4545454496,4808.42424194,3206.30302998,4383.9393935,140.121212107,42.0,42.0,?
2017-08-07 12:02:20.913832,4530.24242379,3721.45454508,4170.15151473,4187.15151473,3851.7878784,428.606060563,3862.60606022,647.030302966,4265.96969654,506.909090858,4438.5454541,131.878787866,4205.18181776,3408.2424239,4370.54545411,3012.6060603,4936.6969692,3651.39393903,4150.57575716,428.606060563,4401.45454501,4162.42424201,4189.21212079,49.4545454496,4806.8787874,3206.30302998,4380.84848441,140.121212107,42.0,42.0,?
2017-08-07 12:02:20.921713,4530.7575753,3721.45454508,4176.84848443,4187.15151473,3856.42424204,428.606060563,3861.06060567,647.030302966,4264.424242,506.909090858,4430.30302986,131.878787866,4204.66666625,3408.2424239,4365.39393896,3012.6060603,4936.18181769,3651.39393903,4156.75757534,428.606060563,4409.18181774,4162.42424201,4200.03030261,49.4545454496,4811.51515103,3206.30302998,4383.42424199,140.121212107,42.0,42.0,?
2017-08-07 12:02:20.929009,4536.93939349,3721.45454508,4186.1212117,4187.15151473,3861.57575719,428.606060563,3861.06060567,647.030302966,4264.424242,506.909090858,4432.36363592,131.878787866,4200.03030261,3408.2424239,4359.21212078,3012.6060603,4936.6969692,3651.39393903,4158.8181814,428.606060563,4412.27272683,4162.42424201,4205.69696928,49.4545454496,4814.09090861,3206.30302998,4388.57575714,140.121212107,42.0,42.0,?
2017-08-07 12:02:20.937720,4540.03030258,3721.45454508,4191.27272685,4187.15151473,3865.1818178,428.606060563,3862.0909087,647.030302966,4260.81818139,506.909090858,4430.30302986,131.878787866,4196.424242,3408.2424239,4357.15151472,3012.6060603,4933.60606011,3651.39393903,4153.66666625,428.606060563,4406.60606017,4162.42424201,4200.54545413,49.4545454496,4811.51515103,3206.30302998,4387.03030259,140.121212107,42.0,42.0,?
2017-08-07 12:02:20.955633,4537.96969652,3721.45454508,4189.72727231,4187.15151473,3866.72727234,428.606060563,3864.66666628,647.030302966,4265.96969654,506.909090858,4428.75757531,131.878787866,4202.09090867,3408.2424239,4363.3333329,3012.6060603,4932.06060557,3651.39393903,4153.15151474,428.606060563,4401.45454501,4162.42424201,4201.06060564,49.4545454496,4807.39393891,3206.30302998,4385.48484805,140.121212107,42.0,42.0,?
2017-08-07 12:02:20.958302,4539.51515106,3721.45454508,4203.63636322,4187.15151473,3865.1818178,428.606060563,3863.63636325,647.030302966,4266.48484806,506.909090858,4443.18181774,131.878787866,4207.24242382,3408.2424239,4363.3333329,3012.6060603,4933.0909086,3651.39393903,4164.99999958,428.606060563,4416.90909047,4162.42424201,4216.51515109,49.4545454496,4820.78787831,3206.30302998,4389.60606017,140.121212107,42.0,42.0,?
2017-08-07 12:02:20.961959,4539.51515106,3721.45454508,4203.63636322,4187.15151473,3865.1818178,428.606060563,3863.63636325,647.030302966,4266.48484806,506.909090858,4443.18181774,131.878787866,4207.24242382,3408.2424239,4363.3333329,3012.6060603,4933.0909086,3651.39393903,4164.99999958,428.606060563,4416.90909047,4162.42424201,4216.51515109,49.4545454496,4820.78787831,3206.30302998,4389.60606017,140.121212107,42.0,42.0,?
2017-08-07 12:02:20.968460,4539.51515106,3721.45454508,4203.63636322,4187.15151473,3865.1818178,428.606060563,3863.63636325,647.030302966,4266.48484806,506.909090858,4443.18181774,131.878787866,4207.24242382,3408.2424239,4363.3333329,3012.6060603,4933.0909086,3651.39393903,4164.99999958,428.606060563,4416.90909047,4162.42424201,4216.51515109,49.4545454496,4820.78787831,3206.30302998,4389.60606017,140.121212107,42.0,42.0,?
2017-08-07 12:02:20.977298,4538.48484803,3721.45454508,4202.60606019,4187.15151473,3864.66666628,428.606060563,3863.63636325,647.030302966,4265.96969654,506.909090858,4438.5454541,131.878787866,4206.72727231,3408.2424239,4362.30302987,3012.6060603,4934.63636314,3651.39393903,4169.63636322,428.606060563,4414.84848441,4162.42424201,4220.63636321,49.4545454496,4818.72727225,3206.30302998,4385.99999956,140.121212107,42.0,42.0,?
2017-08-07 12:02:20.984791,4534.36363591,3721.45454508,4206.72727231,4187.15151473,3863.63636325,428.606060563,3854.36363598,647.030302966,4261.84848442,506.909090858,4429.78787834,131.878787866,4205.69696928,3408.2424239,4360.24242381,3012.6060603,4927.93939345,3651.39393903,4163.96969655,428.606060563,4408.66666623,4162.42424201,4207.75757534,49.4545454496,4814.09090861,3206.30302998,4381.36363593,140.121212107,42.0,42.0,?
2017-08-07 12:02:20.992592,4529.21212076,3721.45454508,4211.87878746,4187.15151473,3857.96969658,428.606060563,3848.1818178,647.030302966,4266.48484806,506.909090858,4433.90909047,131.878787866,4202.60606019,3408.2424239,4356.6363632,3012.6060603,4917.12121163,3651.39393903,4153.15151474,428.606060563,4400.9393935,4162.42424201,4189.72727231,49.4545454496,4808.42424194,3206.30302998,4376.72727229,140.121212107,42.0,42.0,?
2017-08-07 12:02:21.001425,4528.18181773,3721.45454508,4208.27272685,4187.15151473,3853.84848446,428.606060563,3850.75757537,647.030302966,4269.57575715,506.909090858,4440.60606016,131.878787866,4201.06060564,3408.2424239,4361.78787835,3012.6060603,4907.84848436,3651.39393903,4143.87878746,428.606060563,4392.69696926,4162.42424201,4182.5151511,49.4545454496,4799.66666619,3206.30302998,4370.03030259,140.121212107,42.0,42.0,?
2017-08-07 12:02:21.007780,4524.57575712,3721.45454508,4201.57575716,4187.15151473,3850.24242386,428.606060563,3850.24242386,647.030302966,4256.69696927,506.909090858,4436.99999956,131.878787866,4202.60606019,3408.2424239,4365.39393896,3012.6060603,4904.75757527,3651.39393903,4140.27272686,428.606060563,4388.57575714,4162.42424201,4186.63636322,49.4545454496,4794.51515104,3206.30302998,4363.3333329,140.121212107,42.0,42.0,?
2017-08-07 12:02:21.015504,4518.90909046,3721.45454508,4205.18181776,4187.15151473,3845.60606022,428.606060563,3846.12121174,647.030302966,4247.424242,506.909090858,4429.27272683,131.878787866,4202.09090867,3408.2424239,4359.72727229,3012.6060603,4901.15151466,3651.39393903,4147.48484807,428.606060563,4388.57575714,4162.42424201,4188.18181776,49.4545454496,4797.09090861,3206.30302998,4360.24242381,140.121212107,42.0,42.0,?
2017-08-07 12:02:21.023020,4525.09090864,3721.45454508,4218.57575715,4187.15151473,3854.87878749,428.606060563,3848.69696931,647.030302966,4254.63636321,506.909090858,4428.75757531,131.878787866,4200.54545413,3408.2424239,4362.81818138,3012.6060603,4897.54545406,3651.39393903,4157.78787837,428.606060563,4395.78787835,4162.42424201,4189.21212079,49.4545454496,4804.81818134,3206.30302998,4366.9393935,140.121212107,42.0,42.0,?
2017-08-07 12:02:21.031639,4535.90909046,3721.45454508,4224.24242382,4187.15151473,3866.72727234,428.606060563,3854.87878749,647.030302966,4261.33333291,506.909090858,4432.87878744,131.878787866,4204.15151473,3408.2424239,4371.57575714,3012.6060603,4897.54545406,3651.39393903,4157.78787837,428.606060563,4403.51515107,4162.42424201,4192.8181814,49.4545454496,4812.54545406,3206.30302998,4374.15151471,140.121212107,42.0,42.0,?
2017-08-07 12:02:21.038189,4534.36363591,3721.45454508,4220.63636321,4187.15151473,3857.96969658,428.606060563,3852.30302992,647.030302966,4262.36363594,506.909090858,4433.39393895,131.878787866,4205.18181776,3408.2424239,4366.9393935,3012.6060603,4900.12121163,3651.39393903,4155.72727231,428.606060563,4406.09090865,4162.42424201,4202.09090867,49.4545454496,4817.1818177,3206.30302998,4374.15151471,140.121212107,42.0,42.0,?
2017-08-07 12:02:21.046172,4529.21212076,3721.45454508,4227.33333291,4187.15151473,3852.30302992,428.606060563,3847.66666628,647.030302966,4265.96969654,506.909090858,4433.39393895,131.878787866,4206.21212079,3408.2424239,4360.75757532,3012.6060603,4909.3939389,3651.39393903,4157.78787837,428.606060563,4409.69696926,4162.42424201,4223.7272723,49.4545454496,4818.72727225,3206.30302998,4377.2424238,140.121212107,42.0,42.0,?
2017-08-07 12:02:21.055161,4528.18181773,3721.45454508,4241.24242382,4187.15151473,3862.0909087,428.606060563,3853.33333295,647.030302966,4267.51515109,506.909090858,4433.90909047,131.878787866,4205.69696928,3408.2424239,4373.12121168,3012.6060603,4911.45454496,3651.39393903,4159.33333292,428.606060563,4411.75757532,4162.42424201,4239.18181776,49.4545454496,4812.54545406,3206.30302998,4376.72727229,140.121212107,42.0,42.0,?
2017-08-07 12:02:21.062293,4528.18181773,3721.45454508,4241.24242382,4187.15151473,3862.0909087,428.606060563,3853.33333295,647.030302966,4267.51515109,506.909090858,4433.90909047,131.878787866,4205.69696928,3408.2424239,4373.12121168,3012.6060603,4911.45454496,3651.39393903,4159.33333292,428.606060563,4411.75757532,4162.42424201,4239.18181776,49.4545454496,4812.54545406,3206.30302998,4376.72727229,140.121212107,42.0,42.0,?
2017-08-07 12:02:21.072048,4527.66666621,3721.45454508,4248.45454503,4187.15151473,3854.87878749,428.606060563,3851.27272689,647.030302966,4271.12121169,506.909090858,4441.12121168,131.878787866,4212.39393897,3408.2424239,4373.12121168,3012.6060603,4901.15151466,3651.39393903,4155.72727231,428.606060563,4405.06060562,4162.42424201,4232.99999958,49.4545454496,4812.54545406,3206.30302998,4383.9393935,140.121212107,42.0,42.0,?
2017-08-07 12:02:21.079918,4527.1515147,3721.45454508,4252.57575715,4187.15151473,3851.7878784,428.606060563,3849.72727234,647.030302966,4268.0303026,506.909090858,4442.66666622,131.878787866,4220.1212117,3408.2424239,4367.96969653,3012.6060603,4899.60606012,3651.39393903,4150.57575716,428.606060563,4400.42424198,4162.42424201,4234.03030261,49.4545454496,4809.96969649,3206.30302998,4392.69696926,140.121212107,42.0,42.0,?
2017-08-07 12:02:21.085608,4524.06060561,3721.45454508,4246.90909048,4187.15151473,3850.24242386,428.606060563,3847.66666628,647.030302966,4253.09090867,506.909090858,4427.72727228,131.878787866,4203.1212117,3408.2424239,4356.12121169,3012.6060603,4898.57575709,3651.39393903,4151.09090868,428.606060563,4397.84848441,4162.42424201,4228.36363594,49.4545454496,4803.27272679,3206.30302998,4395.27272683,140.121212107,42.0,42.0,?
2017-08-07 12:02:21.094604,4525.09090864,3721.45454508,4247.93939351,4187.15151473,3849.21212083,428.606060563,3846.12121174,647.030302966,4244.84848442,506.909090858,4419.48484804,131.878787866,4188.18181776,3408.2424239,4355.09090866,3012.6060603,4890.33333284,3651.39393903,4156.24242383,428.606060563,4399.90909047,4162.42424201,4214.96969655,49.4545454496,4805.33333285,3206.30302998,4400.42424198,140.121212107,42.0,42.0,?
2017-08-07 12:02:21.102603,4530.7575753,3721.45454508,4252.57575715,4187.15151473,3853.33333295,428.606060563,3848.69696931,647.030302966,4251.54545412,506.909090858,4429.78787834,131.878787866,4193.33333291,3408.2424239,4358.69696926,3012.6060603,4883.12121163,3651.39393903,4153.66666625,428.606060563,4402.48484804,4162.42424201,4211.87878746,49.4545454496,4813.06060558,3206.30302998,4408.15151471,140.121212107,42.0,42.0,?
2017-08-07 12:02:21.109816,4530.24242379,3721.45454508,4251.54545412,4187.15151473,3853.84848446,428.606060563,3849.72727234,647.030302966,4253.60606018,506.909090858,4434.42424198,131.878787866,4192.30302988,3408.2424239,4350.45454502,3012.6060603,4884.15151466,3651.39393903,4146.45454504,428.606060563,4401.45454501,4162.42424201,4219.09090867,49.4545454496,4810.99999952,3206.30302998,4410.21212077,140.121212107,42.0,42.0,?
2017-08-07 12:02:21.118727,4527.1515147,3721.45454508,4258.24242382,4187.15151473,3851.27272689,428.606060563,3847.15151477,647.030302966,4251.03030261,506.909090858,4430.81818138,131.878787866,4189.72727231,3408.2424239,4345.30302987,3012.6060603,4886.21212072,3651.39393903,4145.93939352,428.606060563,4398.87878744,4162.42424201,4223.21212079,49.4545454496,4804.30302982,3206.30302998,4412.78787835,140.121212107,42.0,42.0,?
2017-08-07 12:02:21.125634,4529.72727227,3721.45454508,4266.48484806,4187.15151473,3853.33333295,428.606060563,3848.1818178,647.030302966,4252.06060564,506.909090858,4432.36363592,131.878787866,4201.06060564,3408.2424239,4354.06060563,3012.6060603,4886.21212072,3651.39393903,4149.03030262,428.606060563,4397.33333289,4162.42424201,4223.7272723,49.4545454496,4804.30302982,3206.30302998,4412.78787835,140.121212107,42.0,42.0,?
2017-08-07 12:02:21.133754,4534.87878743,3721.45454508,4269.06060563,4187.15151473,3860.03030264,428.606060563,3855.39393901,647.030302966,4252.06060564,506.909090858,4435.96969653,131.878787866,4205.18181776,3408.2424239,4359.21212078,3012.6060603,4888.27272678,3651.39393903,4152.12121171,428.606060563,4399.39393895,4162.42424201,4225.78787837,49.4545454496,4808.42424194,3206.30302998,4414.33333289,140.121212107,42.0,42.0,?
2017-08-07 12:02:21.142943,4536.93939349,3721.45454508,4275.24242381,4187.15151473,3866.21212083,428.606060563,3861.57575719,647.030302966,4254.1212117,506.909090858,4442.15151471,131.878787866,4202.60606019,3408.2424239,4359.21212078,3012.6060603,4885.69696921,3651.39393903,4157.78787837,428.606060563,4401.45454501,4162.42424201,4218.06060564,49.4545454496,4811.51515103,3206.30302998,4422.57575713,140.121212107,42.0,42.0,?
2017-08-07 12:02:21.147993,4539.51515106,3721.45454508,4285.0303026,4191.27272685,3865.69696931,428.606060563,3858.99999961,647.030302966,4265.45454503,506.909090858,4445.2424238,131.878787866,4207.75757534,3408.2424239,4364.36363593,3012.6060603,4872.81818133,3651.39393903,4159.33333292,428.606060563,4402.99999956,4162.42424201,4204.15151473,49.4545454496,4816.15151467,3206.30302998,4423.09090865,140.121212107,42.0,42.0,?
2017-08-07 12:02:21.157607,4538.48484803,3721.45454508,4285.54545412,4191.27272685,3862.0909087,428.606060563,3852.30302992,647.030302966,4267.51515109,506.909090858,4440.09090865,131.878787866,4205.18181776,3408.2424239,4360.24242381,3012.6060603,4867.15151466,3651.39393903,4155.72727231,428.606060563,4404.54545411,4162.42424201,4202.09090867,49.4545454496,4817.69696922,3206.30302998,4418.96969653,144.242424228,42.0,42.0,?
2017-08-07 12:02:21.164051,4533.33333288,3721.45454508,4283.48484806,4191.27272685,3864.15151477,436.848484805,3850.24242386,647.030302966,4256.18181776,506.909090858,4433.39393895,131.878787866,4191.27272685,3408.2424239,4348.90909047,3012.6060603,4868.1818177,3651.39393903,4157.27272686,428.606060563,4405.06060562,4162.42424201,4199.5151511,49.4545454496,4817.1818177,3206.30302998,4422.57575713,144.242424228,42.0,42.0,?
2017-08-07 12:02:21.176358,4535.39393894,3721.45454508,4291.7272723,4191.27272685,3866.72727234,436.848484805,3852.81818143,647.030302966,4249.48484806,506.909090858,4428.75757531,131.878787866,4187.66666625,3408.2424239,4348.90909047,3012.6060603,4866.63636315,3651.39393903,4158.8181814,428.606060563,4406.09090865,4162.42424201,4193.33333291,49.4545454496,4820.27272679,3206.30302998,4428.2424238,144.242424228,42.0,42.0,?
2017-08-07 12:02:21.179370,4538.48484803,3721.45454508,4297.90909048,4191.27272685,3865.69696931,436.848484805,3852.81818143,647.030302966,4248.96969654,502.787878738,4425.15151471,131.878787866,4187.66666625,3408.2424239,4354.57575714,3012.6060603,4871.27272679,3651.39393903,4158.30302989,428.606060563,4410.72727229,4162.42424201,4197.96969655,49.4545454496,4822.33333285,3206.30302998,4428.75757531,144.242424228,42.0,42.0,?
2017-08-07 12:02:21.191971,4538.48484803,3721.45454508,4300.99999957,4191.27272685,3870.84848446,436.848484805,3853.33333295,647.030302966,4247.93939351,502.787878738,4429.27272683,140.121212107,4188.18181776,3408.2424239,4355.60606017,3012.6060603,4876.42424194,3651.39393903,4158.8181814,428.606060563,4414.33333289,4162.42424201,4205.69696928,49.4545454496,4822.84848437,3206.30302998,4429.78787834,144.242424228,42.0,42.0,?
2017-08-07 12:02:21.195965,4543.12121167,3721.45454508,4310.27272684,4191.27272685,3879.0909087,436.848484805,3854.87878749,647.030302966,4249.99999958,502.787878738,4433.39393895,140.121212107,4196.93939352,3404.12121178,4356.12121169,3012.6060603,4876.93939345,3651.39393903,4159.84848443,428.606060563,4415.36363592,4162.42424201,4205.69696928,49.4545454496,4823.8787874,3206.30302998,4433.90909047,144.242424228,42.0,42.0,?
2017-08-07 12:02:21.205088,4544.66666621,3721.45454508,4315.93939351,4191.27272685,3875.4848481,436.848484805,3854.87878749,647.030302966,4253.60606018,502.787878738,4431.33333289,140.121212107,4201.06060564,3404.12121178,4356.6363632,3008.48484818,4876.93939345,3651.39393903,4158.8181814,428.606060563,4413.30302986,4162.42424201,4199.5151511,49.4545454496,4822.33333285,3206.30302998,4432.36363592,144.242424228,42.0,42.0,?
2017-08-07 12:02:21.211436,4538.48484803,3721.45454508,4313.36363593,4191.27272685,3871.87878749,436.848484805,3850.75757537,647.030302966,4251.54545412,502.787878738,4431.84848441,140.121212107,4198.48484806,3404.12121178,4356.6363632,3008.48484818,4878.99999951,3721.45454508,4161.90909049,428.606060563,4414.84848441,4162.42424201,4196.93939352,49.4545454496,4822.33333285,3206.30302998,4429.27272683,144.242424228,42.0,42.0,?
2017-08-07 12:02:21.219899,4541.06060561,3721.45454508,4316.45454502,4191.27272685,3875.99999961,436.848484805,3847.15151477,647.030302966,4250.51515109,502.787878738,4432.36363592,140.121212107,4201.06060564,3404.12121178,4357.66666623,3008.48484818,4871.7878783,3721.45454508,4170.15151473,428.606060563,4423.09090865,4162.42424201,4201.06060564,49.4545454496,4827.99999952,3206.30302998,4430.81818138,144.242424228,42.0,42.0,?
2017-08-07 12:02:21.226938,4546.21212076,3721.45454508,4326.75757532,4191.27272685,3878.06060567,436.848484805,3855.90909052,647.030302966,4251.03030261,502.787878738,4431.33333289,140.121212107,4205.18181776,3404.12121178,4361.78787835,3008.48484818,4849.63636315,3721.45454508,4171.69696928,428.606060563,4425.66666622,4162.42424201,4203.63636322,49.4545454496,4831.60606012,3206.30302998,4435.96969653,144.242424228,42.0,42.0,?
2017-08-07 12:02:21.234833,4539.51515106,3721.45454508,4331.39393896,4191.27272685,3873.42424204,436.848484805,3861.57575719,647.030302966,4252.06060564,502.787878738,4433.90909047,140.121212107,4209.8181814,3404.12121178,4366.42424199,3008.48484818,4832.63636315,3721.45454508,4168.60606019,428.606060563,4421.03030259,4162.42424201,4202.60606019,61.818181812,4827.484848,3206.30302998,4433.39393895,144.242424228,42.0,42.0,?
2017-08-07 12:02:21.244062,4533.8484844,3721.45454508,4330.87878745,4191.27272685,3869.81818143,436.848484805,3855.39393901,647.030302966,4255.15151473,502.787878738,4434.42424198,140.121212107,4214.45454503,3404.12121178,4367.45454502,3008.48484818,4828.51515103,3721.45454508,4170.66666625,428.606060563,4418.96969653,4162.42424201,4204.66666625,61.818181812,4823.8787874,3198.06060574,4422.57575713,144.242424228,42.0,42.0,?
2017-08-07 12:02:21.251001,4535.39393894,3721.45454508,4331.90909048,4191.27272685,3869.30302992,436.848484805,3851.27272689,647.030302966,4255.15151473,502.787878738,4429.78787834,140.121212107,4211.87878746,3404.12121178,4362.30302987,3008.48484818,4823.36363588,3721.45454508,4170.66666625,440.969696926,4415.87878744,4162.42424201,4203.1212117,61.818181812,4825.93939346,3198.06060574,4414.84848441,144.242424228,42.0,42.0,?
2017-08-07 12:02:21.257679,4535.39393894,3721.45454508,4337.06060563,4191.27272685,3867.75757537,436.848484805,3852.30302992,647.030302966,4251.54545412,502.787878738,4434.9393935,140.121212107,4201.06060564,3404.12121178,4357.66666623,3008.48484818,4814.09090861,3721.45454508,4161.39393898,440.969696926,4412.78787835,4158.30302989,4203.63636322,61.818181812,4826.45454497,3198.06060574,4416.90909047,144.242424228,42.0,42.0,?
2017-08-07 12:02:21.265451,4535.90909046,3721.45454508,4341.69696926,4191.27272685,3872.90909052,436.848484805,3858.99999961,647.030302966,4253.60606018,502.787878738,4439.57575713,140.121212107,4191.78787837,3404.12121178,4355.60606017,3008.48484818,4814.60606012,3721.45454508,4156.75757534,440.969696926,4413.30302986,4158.30302989,4205.18181776,61.818181812,4820.78787831,3198.06060574,4420.51515107,144.242424228,42.0,42.0,?
2017-08-07 12:02:21.275865,4535.90909046,3721.45454508,4340.66666623,4191.27272685,3876.51515113,436.848484805,3860.54545416,647.030302966,4258.24242382,502.787878738,4434.42424198,140.121212107,4193.33333291,3404.12121178,4356.12121169,3008.48484818,4818.21212073,3721.45454508,4158.8181814,440.969696926,4407.6363632,4158.30302989,4194.36363594,61.818181812,4814.60606012,3198.06060574,4415.36363592,144.242424228,42.0,42.0,?
2017-08-07 12:02:21.281982,4532.30302985,3721.45454508,4343.24242381,4191.27272685,3871.36363598,436.848484805,3855.90909052,647.030302966,4256.18181776,502.787878738,4437.51515107,140.121212107,4204.15151473,3404.12121178,4362.30302987,3008.48484818,4816.66666619,3721.45454508,4159.84848443,440.969696926,4399.39393895,4158.30302989,4191.27272685,61.818181812,4815.12121164,3198.06060574,4408.15151471,144.242424228,42.0,42.0,?
2017-08-07 12:02:21.290886,4531.78787833,3721.45454508,4351.99999956,4191.27272685,3868.7878784,436.848484805,3853.84848446,647.030302966,4258.24242382,502.787878738,4440.09090865,140.121212107,4207.24242382,3404.12121178,4364.36363593,3008.48484818,4819.24242376,3721.45454508,4158.30302989,440.969696926,4404.03030259,4158.30302989,4200.54545413,61.818181812,4820.27272679,3198.06060574,4408.66666623,144.242424228,42.0,42.0,?
2017-08-07 12:02:21.297058,4534.87878743,3721.45454508,4358.69696926,4191.27272685,3875.99999961,436.848484805,3855.39393901,647.030302966,4264.424242,502.787878738,4430.81818138,140.121212107,4199.5151511,3404.12121178,4359.21212078,3008.48484818,4820.27272679,3721.45454508,4157.27272686,440.969696926,4409.18181774,4158.30302989,4196.424242,61.818181812,4820.78787831,3198.06060574,4410.72727229,144.242424228,42.0,42.0,?
2017-08-07 12:02:21.311367,4532.30302985,3721.45454508,4362.81818138,4191.27272685,3875.4848481,436.848484805,3852.81818143,647.030302966,4258.24242382,502.787878738,4428.2424238,140.121212107,4197.96969655,3404.12121178,4358.18181775,3008.48484818,4810.99999952,3721.45454508,4159.33333292,440.969696926,4405.06060562,4158.30302989,4183.54545413,61.818181812,4817.1818177,3198.06060574,4410.72727229,144.242424228,42.0,42.0,?
2017-08-07 12:02:21.313300,4529.72727227,3721.45454508,4368.99999956,4191.27272685,3866.21212083,436.848484805,3848.69696931,647.030302966,4247.424242,502.787878738,4433.39393895,140.121212107,4204.66666625,3404.12121178,4360.24242381,3008.48484818,4802.75757528,3721.45454508,4155.72727231,440.969696926,4403.51515107,4158.30302989,4182.5151511,61.818181812,4814.09090861,3198.06060574,4411.2424238,144.242424228,42.0,42.0,?
2017-08-07 12:02:21.326211,4530.24242379,3721.45454508,4370.54545411,4191.27272685,3862.60606022,436.848484805,3848.69696931,647.030302966,4248.96969654,502.787878738,4432.36363592,140.121212107,4204.15151473,3404.12121178,4354.57575714,3008.48484818,4807.39393891,3721.45454508,4145.93939352,440.969696926,4399.39393895,4158.30302989,4185.60606019,61.818181812,4808.42424194,3198.06060574,4405.06060562,144.242424228,42.0,42.0,?
2017-08-07 12:02:21.332322,4525.09090864,3721.45454508,4365.90909047,4191.27272685,3859.51515113,436.848484805,3846.63636325,647.030302966,4252.06060564,502.787878738,4430.30302986,140.121212107,4198.48484806,3404.12121178,4348.90909047,3008.48484818,4812.54545406,3721.45454508,4139.24242383,440.969696926,4390.12121168,4158.30302989,4188.18181776,61.818181812,4801.72727225,3198.06060574,4394.2424238,144.242424228,42.0,42.0,?
2017-08-07 12:02:21.336690,4520.96969652,3721.45454508,4367.45454502,4191.27272685,3860.54545416,436.848484805,3847.15151477,647.030302966,4250.51515109,502.787878738,4432.36363592,140.121212107,4197.45454503,3404.12121178,4349.42424199,3008.48484818,4811.51515103,3721.45454508,4139.75757534,440.969696926,4389.60606017,4158.30302989,4195.90909049,61.818181812,4803.27272679,3198.06060574,4398.36363592,144.242424228,42.0,42.0,?
2017-08-07 12:02:21.343648,4524.06060561,3721.45454508,4372.09090865,4191.27272685,3858.4848481,436.848484805,3848.1818178,647.030302966,4252.06060564,502.787878738,4431.33333289,140.121212107,4192.8181814,3404.12121178,4348.39393896,3008.48484818,4814.09090861,3721.45454508,4146.96969656,440.969696926,4397.33333289,4158.30302989,4202.09090867,61.818181812,4808.93939346,3198.06060574,4404.54545411,144.242424228,42.0,42.0,?
2017-08-07 12:02:21.351927,4526.12121167,3721.45454508,4369.51515108,4191.27272685,3848.1818178,436.848484805,3845.60606022,647.030302966,4252.06060564,502.787878738,4428.2424238,140.121212107,4189.21212079,3404.12121178,4347.87878744,3008.48484818,4820.27272679,3721.45454508,4156.24242383,440.969696926,4400.9393935,4158.30302989,4203.63636322,61.818181812,4812.54545406,3198.06060574,4396.81818138,144.242424228,42.0,42.0,?
2017-08-07 12:02:21.364620,4529.21212076,3721.45454508,4372.60606017,4191.27272685,3853.33333295,436.848484805,3847.15151477,647.030302966,4252.06060564,502.787878738,4426.18181774,140.121212107,4194.36363594,3404.12121178,4350.45454502,3008.48484818,4817.1818177,3721.45454508,4161.39393898,440.969696926,4400.9393935,4158.30302989,4202.09090867,61.818181812,4815.12121164,3198.06060574,4393.72727229,144.242424228,42.0,42.0,?
2017-08-07 12:02:21.380884,4530.7575753,3721.45454508,4394.75757532,4191.27272685,3864.66666628,436.848484805,3849.72727234,647.030302966,4254.1212117,502.787878738,4432.36363592,140.121212107,4203.1212117,3404.12121178,4347.36363593,3008.48484818,4818.72727225,3721.45454508,4143.87878746,440.969696926,4410.21212077,4158.30302989,4204.66666625,61.818181812,4815.63636315,3198.06060574,4401.96969653,144.242424228,42.0,42.0,?
2017-08-07 12:02:21.381794,4530.7575753,3721.45454508,4394.75757532,4191.27272685,3864.66666628,436.848484805,3849.72727234,647.030302966,4254.1212117,502.787878738,4432.36363592,140.121212107,4203.1212117,3404.12121178,4347.36363593,3008.48484818,4818.72727225,3721.45454508,4143.87878746,440.969696926,4410.21212077,4158.30302989,4204.66666625,61.818181812,4815.63636315,3198.06060574,4401.96969653,144.242424228,42.0,42.0,?
2017-08-07 12:02:21.386836,4530.7575753,3721.45454508,4394.75757532,4191.27272685,3864.66666628,436.848484805,3849.72727234,647.030302966,4254.1212117,502.787878738,4432.36363592,140.121212107,4203.1212117,3404.12121178,4347.36363593,3008.48484818,4818.72727225,3721.45454508,4143.87878746,440.969696926,4410.21212077,4158.30302989,4204.66666625,61.818181812,4815.63636315,3198.06060574,4401.96969653,144.242424228,42.0,42.0,?
2017-08-07 12:02:21.391157,4531.27272682,3721.45454508,4399.39393895,4191.27272685,3871.87878749,436.848484805,3847.15151477,647.030302966,4251.03030261,502.787878738,4433.90909047,140.121212107,4205.18181776,3404.12121178,4353.03030259,3008.48484818,4823.8787874,3721.45454508,4154.69696928,440.969696926,4405.57575714,4158.30302989,4206.72727231,61.818181812,4817.1818177,3198.06060574,4401.96969653,144.242424228,42.0,42.0,?
2017-08-07 12:02:21.399565,4530.24242379,3721.45454508,4404.03030259,4191.27272685,3871.87878749,436.848484805,3847.15151477,647.030302966,4248.96969654,502.787878738,4437.51515107,140.121212107,4205.18181776,3404.12121178,4352.51515108,3008.48484818,4822.33333285,3721.45454508,4150.06060565,440.969696926,4400.42424198,4158.30302989,4207.75757534,61.818181812,4814.09090861,3198.06060574,4401.45454501,144.242424228,42.0,42.0,?
2017-08-07 12:02:21.411236,4527.1515147,3721.45454508,4399.39393895,4191.27272685,3863.12121173,436.848484805,3847.15151477,647.030302966,4254.1212117,502.787878738,4432.87878744,140.121212107,4202.09090867,3404.12121178,4344.27272684,3008.48484818,4817.1818177,3721.45454508,4141.8181814,440.969696926,4398.36363592,4158.30302989,4189.21212079,61.818181812,4810.99999952,3198.06060574,4396.81818138,144.242424228,42.0,42.0,?
2017-08-07 12:02:21.414834,4527.1515147,3721.45454508,4399.39393895,4191.27272685,3863.12121173,436.848484805,3847.15151477,647.030302966,4254.1212117,502.787878738,4432.87878744,140.121212107,4202.09090867,3404.12121178,4344.27272684,3008.48484818,4817.1818177,3721.45454508,4141.8181814,440.969696926,4398.36363592,4158.30302989,4189.21212079,61.818181812,4810.99999952,3198.06060574,4396.81818138,144.242424228,42.0,42.0,?
2017-08-07 12:02:21.422010,4526.63636318,3721.45454508,4399.39393895,4191.27272685,3865.69696931,436.848484805,3846.63636325,647.030302966,4250.51515109,502.787878738,4430.81818138,140.121212107,4199.5151511,3404.12121178,4346.3333329,3008.48484818,4820.27272679,3721.45454508,4146.96969656,440.969696926,4397.33333289,4158.30302989,4193.84848443,61.818181812,4807.39393891,3198.06060574,4391.66666623,144.242424228,42.0,42.0,?
2017-08-07 12:02:21.438393,4530.7575753,3721.45454508,4412.78787835,4191.27272685,3863.63636325,436.848484805,3847.66666628,647.030302966,4248.45454503,502.787878738,4431.33333289,140.121212107,4202.60606019,3404.12121178,4347.87878744,3008.48484818,4823.8787874,3721.45454508,4145.42424201,440.969696926,4408.15151471,4158.30302989,4208.78787837,61.818181812,4817.1818177,3198.06060574,4397.33333289,144.242424228,42.0,42.0,?
2017-08-07 12:02:21.456199,4533.33333288,3721.45454508,4422.57575713,4191.27272685,3863.63636325,436.848484805,3847.66666628,647.030302966,4249.99999958,502.787878738,4434.42424198,140.121212107,4201.57575716,3404.12121178,4343.75757532,3008.48484818,4823.8787874,3721.45454508,4145.42424201,440.969696926,4408.15151471,4158.30302989,4208.78787837,61.818181812,4817.1818177,3198.06060574,4397.33333289,144.242424228,42.0,42.0,?
2017-08-07 12:02:21.460179,4530.24242379,3721.45454508,4417.42424198,4191.27272685,3866.21212083,436.848484805,3846.63636325,647.030302966,4252.06060564,502.787878738,4433.90909047,140.121212107,4202.09090867,3404.12121178,4344.27272684,3008.48484818,4817.1818177,3721.45454508,4140.27272686,440.969696926,4402.99999956,4158.30302989,4198.48484806,61.818181812,4809.45454497,3198.06060574,4399.90909047,144.242424228,42.0,42.0,?
2017-08-07 12:02:21.478678,4531.78787833,3721.45454508,4417.42424198,4191.27272685,3866.72727234,436.848484805,3847.66666628,647.030302966,4253.09090867,502.787878738,4433.90909047,140.121212107,4206.21212079,3404.12121178,4344.78787835,3008.48484818,4821.81818134,3721.45454508,4145.93939352,440.969696926,4401.45454501,4158.30302989,4201.57575716,61.818181812,4804.81818134,3198.06060574,4397.84848441,144.242424228,42.0,42.0,?
2017-08-07 12:02:21.481403,4534.36363591,3721.45454508,4427.72727228,4191.27272685,3867.75757537,436.848484805,3852.30302992,647.030302966,4254.1212117,502.787878738,4442.15151471,140.121212107,4205.69696928,3404.12121178,4345.30302987,3008.48484818,4821.81818134,3721.45454508,4151.09090868,440.969696926,4405.57575714,4158.30302989,4204.66666625,61.818181812,4810.484848,3198.06060574,4399.39393895,144.242424228,42.0,42.0,?
2017-08-07 12:02:21.484685,4535.90909046,3721.45454508,4431.84848441,4191.27272685,3868.27272689,436.848484805,3852.81818143,647.030302966,4252.57575715,502.787878738,4441.63636319,140.121212107,4201.57575716,3404.12121178,4350.96969653,3008.48484818,4819.24242376,3721.45454508,4144.90909049,440.969696926,4408.15151471,4158.30302989,4206.72727231,61.818181812,4811.51515103,3198.06060574,4404.03030259,144.242424228,42.0,42.0,?
2017-08-07 12:02:21.489041,4535.39393894,3721.45454508,4429.78787834,4191.27272685,3865.69696931,436.848484805,3849.21212083,647.030302966,4251.03030261,502.787878738,4435.45454501,140.121212107,4204.15151473,3404.12121178,4355.09090866,3008.48484818,4822.33333285,3721.45454508,4139.24242383,440.969696926,4403.51515107,4158.30302989,4202.60606019,61.818181812,4806.36363588,3198.06060574,4400.42424198,144.242424228,42.0,42.0,?
2017-08-07 12:02:21.492210,4532.30302985,3721.45454508,4429.27272683,4191.27272685,3862.60606022,436.848484805,3845.09090871,647.030302966,4257.7272723,502.787878738,4436.48484804,140.121212107,4204.15151473,3404.12121178,4350.45454502,3008.48484818,4822.33333285,3721.45454508,4140.27272686,440.969696926,4399.90909047,4158.30302989,4189.21212079,61.818181812,4806.8787874,3198.06060574,4393.21212077,144.242424228,42.0,42.0,?
2017-08-07 12:02:21.495033,4528.69696924,3721.45454508,4431.33333289,4191.27272685,3864.15151477,436.848484805,3846.63636325,647.030302966,4255.66666624,502.787878738,4430.30302986,140.121212107,4192.30302988,3404.12121178,4343.24242381,3008.48484818,4821.30302982,3721.45454508,4143.87878746,440.969696926,4404.03030259,4158.30302989,4191.27272685,61.818181812,4809.45454497,3198.06060574,4394.2424238,144.242424228,42.0,42.0,?
2017-08-07 12:02:21.500416,4525.60606015,3721.45454508,4431.84848441,4191.27272685,3866.21212083,436.848484805,3849.21212083,647.030302966,4237.63636321,502.787878738,4417.42424198,140.121212107,4180.45454504,3404.12121178,4338.60606017,3008.48484818,4820.27272679,3721.45454508,4141.8181814,440.969696926,4402.99999956,4158.30302989,4204.66666625,61.818181812,4804.81818134,3198.06060574,4393.72727229,144.242424228,42.0,42.0,?
2017-08-07 12:02:21.508205,4528.18181773,3721.45454508,4431.33333289,4191.27272685,3865.69696931,436.848484805,3847.15151477,647.030302966,4232.99999958,502.787878738,4414.33333289,140.121212107,4183.54545413,3404.12121178,4342.21212078,3008.48484818,4819.24242376,3721.45454508,4142.33333292,440.969696926,4396.30302986,4158.30302989,4200.03030261,61.818181812,4800.1818177,3198.06060574,4386.51515108,144.242424228,42.0,42.0,?
2017-08-07 12:02:21.516649,4534.87878743,3721.45454508,4435.96969653,4191.27272685,3864.15151477,436.848484805,3845.60606022,647.030302966,4244.84848442,502.787878738,4421.5454541,140.121212107,4192.8181814,3404.12121178,4349.9393935,3008.48484818,4824.39393891,3721.45454508,4150.06060565,440.969696926,4401.96969653,4158.30302989,4188.69696928,61.818181812,4807.39393891,3198.06060574,4384.45454502,144.242424228,42.0,42.0,?
2017-08-07 12:02:21.526683,4527.66666621,3721.45454508,4445.2424238,4191.27272685,3867.24242386,436.848484805,3846.63636325,647.030302966,4247.93939351,502.787878738,4426.69696925,140.121212107,4192.8181814,3404.12121178,4348.39393896,3008.48484818,4825.42424194,3721.45454508,4149.54545413,440.969696926,4409.69696926,4158.30302989,4193.84848443,61.818181812,4815.12121164,3198.06060574,4392.69696926,144.242424228,42.0,42.0,?
2017-08-07 12:02:21.534662,4527.66666621,3721.45454508,4447.81818137,4191.27272685,3871.36363598,436.848484805,3848.1818178,647.030302966,4247.93939351,502.787878738,4424.63636319,140.121212107,4189.21212079,3404.12121178,4342.72727229,3008.48484818,4818.72727225,3721.45454508,4142.84848443,440.969696926,4403.51515107,4158.30302989,4193.84848443,61.818181812,4812.54545406,3198.06060574,4392.69696926,144.242424228,42.0,42.0,?
2017-08-07 12:02:21.543298,4527.1515147,3721.45454508,4447.81818137,4191.27272685,3868.7878784,436.848484805,3847.15151477,647.030302966,4242.27272685,502.787878738,4420.51515107,140.121212107,4187.66666625,3404.12121178,4342.72727229,3008.48484818,4814.60606012,3721.45454508,4139.24242383,440.969696926,4395.27272683,4158.30302989,4188.69696928,61.818181812,4805.33333285,3198.06060574,4384.45454502,144.242424228,42.0,42.0,?
2017-08-07 12:02:21.555174,4525.09090864,3721.45454508,4450.90909046,4191.27272685,3864.15151477,436.848484805,3840.96969659,647.030302966,4248.45454503,502.787878738,4428.75757531,140.121212107,4204.15151473,3404.12121178,4342.72727229,3008.48484818,4832.12121164,3721.45454508,4137.69696928,440.969696926,4398.87878744,4158.30302989,4208.27272685,61.818181812,4806.36363588,3198.06060574,4387.03030259,144.242424228,42.0,42.0,?
2017-08-07 12:02:21.555888,4525.09090864,3721.45454508,4450.90909046,4191.27272685,3864.15151477,436.848484805,3840.96969659,647.030302966,4248.45454503,502.787878738,4428.75757531,140.121212107,4204.15151473,3404.12121178,4342.72727229,3008.48484818,4832.12121164,3721.45454508,4137.69696928,440.969696926,4398.87878744,4158.30302989,4208.27272685,61.818181812,4806.36363588,3198.06060574,4387.03030259,144.242424228,42.0,42.0,?
2017-08-07 12:02:21.570916,4524.57575712,3721.45454508,4452.96969652,4191.27272685,3865.1818178,436.848484805,3838.90909053,647.030302966,4250.51515109,502.787878738,4418.45454501,140.121212107,4192.8181814,3404.12121178,4349.9393935,3008.48484818,4835.21212073,3721.45454508,4146.45454504,440.969696926,4394.2424238,4158.30302989,4203.1212117,61.818181812,4801.72727225,3198.06060574,4375.18181774,144.242424228,42.0,42.0,?
2017-08-07 12:02:21.583595,4521.48484803,3721.45454508,4458.63636319,4191.27272685,3860.54545416,436.848484805,3836.84848446,647.030302966,4242.27272685,502.787878738,4411.75757532,140.121212107,4197.45454503,3404.12121178,4348.90909047,3008.48484818,4833.66666618,3721.45454508,4149.54545413,440.969696926,4397.84848441,4158.30302989,4204.66666625,61.818181812,4803.78787831,3198.06060574,4377.2424238,144.242424228,42.0,42.0,?
2017-08-07 12:02:21.584619,4521.48484803,3721.45454508,4458.63636319,4191.27272685,3860.54545416,436.848484805,3836.84848446,647.030302966,4242.27272685,502.787878738,4411.75757532,140.121212107,4197.45454503,3404.12121178,4348.90909047,3008.48484818,4833.66666618,3721.45454508,4149.54545413,440.969696926,4397.84848441,4158.30302989,4204.66666625,61.818181812,4803.78787831,3198.06060574,4377.2424238,144.242424228,42.0,42.0,?
2017-08-07 12:02:21.589140,4523.03030258,3721.45454508,4456.57575713,4191.27272685,3857.45454507,436.848484805,3833.75757537,647.030302966,4236.60606018,502.787878738,4413.30302986,140.121212107,4204.15151473,3404.12121178,4346.84848441,3008.48484818,4834.69696921,3721.45454508,4151.09090868,440.969696926,4399.90909047,4158.30302989,4193.33333291,61.818181812,4808.93939346,3198.06060574,4379.81818138,144.242424228,42.0,42.0,?
2017-08-07 12:02:21.596144,4526.63636318,3721.45454508,4463.27272683,4191.27272685,3862.60606022,436.848484805,3833.75757537,647.030302966,4238.15151473,502.787878738,4417.42424198,140.121212107,4200.54545413,3404.12121178,4346.3333329,3008.48484818,4835.72727224,3721.45454508,4153.66666625,440.969696926,4401.96969653,4158.30302989,4197.96969655,61.818181812,4809.96969649,3198.06060574,4379.30302987,144.242424228,42.0,42.0,?
2017-08-07 12:02:21.616659,4526.63636318,3721.45454508,4463.27272683,4191.27272685,3862.60606022,436.848484805,3833.75757537,647.030302966,4238.15151473,502.787878738,4416.39393895,140.121212107,4190.24242382,3404.12121178,4346.3333329,3008.48484818,4835.72727224,3721.45454508,4156.24242383,440.969696926,4405.06060562,4158.30302989,4197.96969655,61.818181812,4809.45454497,3198.06060574,4377.2424238,144.242424228,42.0,42.0,?
2017-08-07 12:02:21.620330,4527.1515147,3721.45454508,4465.33333289,4191.27272685,3857.45454507,436.848484805,3834.7878784,647.030302966,4235.57575715,502.787878738,4416.90909047,140.121212107,4189.72727231,3404.12121178,4348.90909047,3008.48484818,4842.93939346,3721.45454508,4155.72727231,440.969696926,4406.09090865,4158.30302989,4202.09090867,61.818181812,4812.54545406,3198.06060574,4376.72727229,144.242424228,42.0,42.0,?
2017-08-07 12:02:21.625218,4527.66666621,3721.45454508,4472.03030258,4191.27272685,3864.15151477,436.848484805,3835.81818143,647.030302966,4246.39393897,502.787878738,4418.45454501,140.121212107,4198.48484806,3404.12121178,4351.99999956,3008.48484818,4869.72727224,3721.45454508,4155.2121208,440.969696926,4408.15151471,4158.30302989,4207.24242382,61.818181812,4817.1818177,3198.06060574,4381.36363593,144.242424228,42.0,42.0,?
2017-08-07 12:02:21.627980,4527.66666621,3721.45454508,4472.03030258,4191.27272685,3864.15151477,436.848484805,3835.81818143,647.030302966,4246.39393897,502.787878738,4416.90909047,140.121212107,4197.96969655,3404.12121178,4350.96969653,3008.48484818,4869.72727224,3721.45454508,4152.12121171,440.969696926,4411.75757532,4158.30302989,4207.24242382,61.818181812,4815.12121164,3198.06060574,4380.3333329,144.242424228,42.0,42.0,?
2017-08-07 12:02:21.633465,4520.96969652,3721.45454508,4469.96969652,4191.27272685,3855.39393901,436.848484805,3833.75757537,647.030302966,4239.69696927,502.787878738,4417.9393935,140.121212107,4188.18181776,3404.12121178,4345.81818138,3008.48484818,4857.36363588,3721.45454508,4139.75757534,440.969696926,4402.99999956,4158.30302989,4202.09090867,61.818181812,4804.30302982,3198.06060574,4371.57575714,144.242424228,42.0,42.0,?
2017-08-07 12:02:21.649595,4515.81818137,3717.33333296,4463.78787834,4191.27272685,3843.03030265,436.848484805,3831.69696931,647.030302966,4237.63636321,502.787878738,4418.96969653,140.121212107,4186.1212117,3404.12121178,4340.66666623,3008.48484818,4885.69696921,3721.45454508,4122.24242383,440.969696926,4385.48484805,4158.30302989,4188.18181776,61.818181812,4792.45454498,3198.06060574,4361.78787835,144.242424228,42.0,42.0,?
2017-08-07 12:02:21.653566,4510.66666622,3717.33333296,4460.18181774,4199.5151511,3840.45454507,436.848484805,3831.69696931,647.030302966,4243.30302988,502.787878738,4417.42424198,140.121212107,4190.24242382,3404.12121178,4335.51515108,3008.48484818,4942.87878738,3721.45454508,4107.81818141,440.969696926,4374.15151471,4158.30302989,4183.03030261,61.818181812,4783.1818177,3198.06060574,4350.45454502,144.242424228,42.0,42.0,?
2017-08-07 12:02:21.669984,4526.63636318,3717.33333296,4478.72727228,4199.5151511,3856.42424204,428.606060563,3837.36363598,642.909090845,4246.39393897,502.787878738,4419.99999956,140.121212107,4190.75757534,3404.12121178,4345.81818138,3008.48484818,4962.96969647,3721.45454508,4139.75757534,440.969696926,4402.99999956,4158.30302989,4207.75757534,61.818181812,4805.84848437,3198.06060574,4375.18181774,140.121212107,42.0,42.0,?
2017-08-07 12:02:21.684252,4526.63636318,3717.33333296,4478.72727228,4199.5151511,3856.42424204,428.606060563,3837.36363598,642.909090845,4246.39393897,502.787878738,4419.99999956,140.121212107,4190.75757534,3404.12121178,4345.81818138,3008.48484818,4962.96969647,3721.45454508,4139.75757534,440.969696926,4402.99999956,4158.30302989,4207.75757534,61.818181812,4805.84848437,3198.06060574,4375.18181774,140.121212107,42.0,42.0,?
2017-08-07 12:02:21.690942,4528.18181773,3717.33333296,4484.39393895,4199.5151511,3856.42424204,428.606060563,3837.36363598,642.909090845,4246.39393897,502.787878738,4419.99999956,140.121212107,4190.75757534,3404.12121178,4345.81818138,3008.48484818,4962.96969647,3721.45454508,4139.75757534,440.969696926,4402.99999956,4158.30302989,4206.21212079,61.818181812,4805.84848437,3198.06060574,4375.18181774,140.121212107,42.0,42.0,?
2017-08-07 12:02:21.700613,4529.21212076,3717.33333296,4491.60606016,4199.5151511,3857.96969658,428.606060563,3836.33333295,642.909090845,4251.03030261,494.545454496,4428.2424238,131.878787866,4203.1212117,3404.12121178,4348.39393896,3008.48484818,4953.6969692,3721.45454508,4143.36363595,440.969696926,4399.39393895,4158.30302989,4201.57575716,61.818181812,4807.39393891,3198.06060574,4367.45454502,140.121212107,42.0,42.0,?
2017-08-07 12:02:21.703770,4534.36363591,3717.33333296,4497.27272682,4199.5151511,3857.96969658,428.606060563,3836.33333295,642.909090845,4247.424242,494.545454496,4428.2424238,131.878787866,4203.1212117,3404.12121178,4348.39393896,3008.48484818,4953.6969692,3721.45454508,4143.36363595,440.969696926,4399.39393895,4158.30302989,4204.15151473,61.818181812,4807.39393891,3198.06060574,4367.45454502,140.121212107,42.0,42.0,?
2017-08-07 12:02:21.707422,4529.21212076,3717.33333296,4492.12121167,4199.5151511,3852.81818143,428.606060563,3833.24242386,642.909090845,4247.93939351,494.545454496,4426.69696925,131.878787866,4196.424242,3408.2424239,4343.75757532,3004.36363606,4955.75757526,3721.45454508,4139.24242383,440.969696926,4397.33333289,4158.30302989,4184.57575716,61.818181812,4808.42424194,3198.06060574,4379.30302987,140.121212107,42.0,42.0,?
2017-08-07 12:02:21.710513,4529.21212076,3717.33333296,4492.12121167,4199.5151511,3852.81818143,428.606060563,3833.24242386,642.909090845,4247.93939351,494.545454496,4426.69696925,131.878787866,4196.424242,3408.2424239,4343.75757532,3004.36363606,4955.75757526,3721.45454508,4139.24242383,440.969696926,4397.33333289,4158.30302989,4184.57575716,61.818181812,4808.42424194,3198.06060574,4379.30302987,140.121212107,42.0,42.0,?
2017-08-07 12:02:21.716150,4528.69696924,3717.33333296,4493.1515147,4199.5151511,3854.36363598,428.606060563,3834.27272689,642.909090845,4246.39393897,494.545454496,4424.12121168,131.878787866,4196.424242,3408.2424239,4345.81818138,3004.36363606,4956.27272678,3709.09090872,4137.18181777,440.969696926,4397.33333289,4158.30302989,4188.69696928,61.818181812,4808.42424194,3198.06060574,4372.09090865,140.121212107,42.0,42.0,?
2017-08-07 12:02:21.720773,4527.1515147,3717.33333296,4495.72727228,4199.5151511,3851.27272689,428.606060563,3836.33333295,642.909090845,4242.78787836,494.545454496,4426.18181774,131.878787866,4200.54545413,3408.2424239,4348.39393896,3004.36363606,4958.84848435,3709.09090872,4138.72727231,440.969696926,4401.45454501,4154.18181777,4193.84848443,61.818181812,4805.84848437,3198.06060574,4374.66666623,140.121212107,42.0,42.0,?
2017-08-07 12:02:21.754416,4527.1515147,3717.33333296,4495.72727228,4199.5151511,3851.27272689,428.606060563,3836.33333295,642.909090845,4242.78787836,494.545454496,4426.18181774,131.878787866,4200.54545413,3408.2424239,4348.39393896,3004.36363606,4958.84848435,3709.09090872,4138.72727231,440.969696926,4401.45454501,4154.18181777,4193.84848443,61.818181812,4805.84848437,3198.06060574,4374.66666623,140.121212107,42.0,42.0,?
2017-08-07 12:02:21.754498,4523.03030258,3717.33333296,4495.72727228,4199.5151511,3846.63636325,428.606060563,3830.15151477,642.909090845,4252.57575715,494.545454496,4425.66666622,131.878787866,4185.60606019,3408.2424239,4340.15151472,3004.36363606,4954.72727223,3709.09090872,4131.5151511,440.969696926,4391.15151471,4154.18181777,4188.69696928,61.818181812,4800.69696922,3210.4242421,4361.27272684,140.121212107,42.0,42.0,?
2017-08-07 12:02:21.768109,4523.03030258,3717.33333296,4495.72727228,4199.5151511,3846.63636325,428.606060563,3830.15151477,642.909090845,4252.57575715,494.545454496,4425.66666622,131.878787866,4185.60606019,3408.2424239,4340.15151472,3004.36363606,4954.72727223,3709.09090872,4131.5151511,440.969696926,4391.15151471,4154.18181777,4188.69696928,61.818181812,4800.69696922,3210.4242421,4361.27272684,140.121212107,42.0,42.0,?
2017-08-07 12:02:21.772059,4521.99999955,3717.33333296,4508.09090864,4199.5151511,3847.66666628,428.606060563,3831.69696931,642.909090845,4250.51515109,494.545454496,4419.48484804,131.878787866,4193.84848443,3408.2424239,4343.75757532,3004.36363606,4962.96969647,3709.09090872,4129.45454504,440.969696926,4394.2424238,4166.54545413,4201.06060564,61.818181812,4804.30302982,3210.4242421,4361.27272684,140.121212107,42.0,42.0,?
2017-08-07 12:02:21.776015,4521.99999955,3717.33333296,4508.09090864,4199.5151511,3847.66666628,428.606060563,3831.69696931,642.909090845,4250.51515109,494.545454496,4419.48484804,131.878787866,4193.84848443,3408.2424239,4343.75757532,3004.36363606,4962.96969647,3709.09090872,4129.45454504,440.969696926,4394.2424238,4166.54545413,4201.06060564,61.818181812,4804.30302982,3210.4242421,4361.27272684,140.121212107,42.0,42.0,?
2017-08-07 12:02:21.783982,4521.99999955,3717.33333296,4508.09090864,4199.5151511,3847.66666628,428.606060563,3831.69696931,642.909090845,4250.51515109,494.545454496,4419.48484804,131.878787866,4193.84848443,3408.2424239,4343.75757532,3004.36363606,4962.96969647,3709.09090872,4129.45454504,440.969696926,4394.2424238,4166.54545413,4201.06060564,61.818181812,4804.30302982,3210.4242421,4361.27272684,140.121212107,42.0,42.0,?
2017-08-07 12:02:21.797483,4521.99999955,3717.33333296,4508.09090864,4199.5151511,3847.66666628,428.606060563,3831.69696931,642.909090845,4250.51515109,494.545454496,4419.48484804,131.878787866,4193.84848443,3408.2424239,4343.75757532,3004.36363606,4962.96969647,3709.09090872,4129.45454504,440.969696926,4394.2424238,4166.54545413,4201.06060564,61.818181812,4804.30302982,3210.4242421,4361.27272684,140.121212107,42.0,42.0,?
2017-08-07 12:02:21.810937,4521.99999955,3717.33333296,4512.21212076,4199.5151511,3843.54545416,428.606060563,3833.24242386,642.909090845,4248.96969654,494.545454496,4423.60606016,131.878787866,4203.63636322,3408.2424239,4348.90909047,3004.36363606,4968.12121162,3709.09090872,4122.75757535,440.969696926,4390.12121168,4166.54545413,4197.45454503,61.818181812,4803.78787831,3210.4242421,4355.09090866,140.121212107,42.0,42.0,?
2017-08-07 12:02:21.815116,4518.90909046,3717.33333296,4512.72727228,4199.5151511,3837.36363598,428.606060563,3832.21212083,642.909090845,4249.99999958,494.545454496,4424.12121168,131.878787866,4207.24242382,3408.2424239,4349.42424199,3004.36363606,4967.09090859,3709.09090872,4121.72727232,440.969696926,4388.57575714,4166.54545413,4195.90909049,61.818181812,4804.30302982,3210.4242421,4351.99999956,140.121212107,42.0,42.0,?
2017-08-07 12:02:21.822624,4516.33333288,3717.33333296,4511.69696925,4199.5151511,3834.7878784,428.606060563,3831.1818178,642.909090845,4244.84848442,494.545454496,4422.57575713,131.878787866,4196.424242,3408.2424239,4344.78787835,3004.36363606,4959.36363587,3709.09090872,4125.33333292,440.969696926,4390.6363632,4166.54545413,4188.69696928,61.818181812,4803.78787831,3210.4242421,4358.18181775,140.121212107,42.0,42.0,?
2017-08-07 12:02:21.835989,4515.30302985,3717.33333296,4515.30302985,4199.5151511,3833.24242386,428.606060563,3829.12121174,642.909090845,4250.51515109,494.545454496,4422.57575713,131.878787866,4187.66666625,3408.2424239,4341.18181775,3004.36363606,4961.93939344,3709.09090872,4123.27272686,440.969696926,4386.51515108,4166.54545413,4187.15151473,61.818181812,4798.12121164,3210.4242421,4355.60606017,140.121212107,42.0,42.0,?
2017-08-07 12:02:21.837316,4516.8484844,3717.33333296,4522.51515106,4199.5151511,3833.24242386,428.606060563,3829.12121174,642.909090845,4250.51515109,494.545454496,4422.57575713,131.878787866,4189.72727231,3408.2424239,4344.78787835,3004.36363606,4972.24242375,3709.09090872,4118.63636322,440.969696926,4384.45454502,4166.54545413,4206.72727231,61.818181812,4795.54545407,3210.4242421,4352.51515108,140.121212107,42.0,42.0,?
2017-08-07 12:02:21.841127,4515.81818137,3717.33333296,4528.69696924,4199.5151511,3834.7878784,428.606060563,3833.75757537,642.909090845,4237.63636321,494.545454496,4414.33333289,131.878787866,4183.54545413,3408.2424239,4341.69696926,3004.36363606,4975.84848435,3709.09090872,4128.42424201,440.969696926,4392.69696926,4166.54545413,4214.96969655,61.818181812,4804.30302982,3210.4242421,4365.90909047,140.121212107,42.0,42.0,?
2017-08-07 12:02:21.848213,4515.81818137,3717.33333296,4528.69696924,4199.5151511,3834.7878784,428.606060563,3833.75757537,642.909090845,4237.63636321,494.545454496,4414.33333289,131.878787866,4183.54545413,3408.2424239,4341.69696926,3004.36363606,4975.84848435,3709.09090872,4128.42424201,440.969696926,4392.69696926,4166.54545413,4214.96969655,61.818181812,4804.30302982,3210.4242421,4365.90909047,140.121212107,42.0,42.0,?
2017-08-07 12:02:21.853721,4516.33333288,3717.33333296,4527.1515147,4199.5151511,3834.27272689,428.606060563,3832.21212083,642.909090845,4249.48484806,494.545454496,4417.42424198,131.878787866,4187.15151473,3408.2424239,4342.72727229,3004.36363606,4971.72727223,3709.09090872,4124.30302989,440.969696926,4381.87878744,4166.54545413,4198.99999958,61.818181812,4795.03030255,3210.4242421,4362.81818138,140.121212107,42.0,42.0,?
2017-08-07 12:02:21.860720,4510.1515147,3717.33333296,4542.60606015,4199.5151511,3834.7878784,428.606060563,3832.21212083,642.909090845,4236.60606018,494.545454496,4413.81818138,131.878787866,4170.66666625,3408.2424239,4330.87878745,3004.36363606,4962.45454496,3709.09090872,4125.84848444,440.969696926,4381.87878744,4166.54545413,4187.66666625,61.818181812,4792.45454498,3210.4242421,4377.75757532,140.121212107,42.0,42.0,?
2017-08-07 12:02:21.864695,4510.1515147,3717.33333296,4542.60606015,4199.5151511,3834.7878784,428.606060563,3832.21212083,642.909090845,4236.60606018,494.545454496,4413.81818138,131.878787866,4170.66666625,3408.2424239,4330.87878745,3004.36363606,4962.45454496,3709.09090872,4125.84848444,440.969696926,4381.87878744,4166.54545413,4187.66666625,61.818181812,4792.45454498,3210.4242421,4377.75757532,140.121212107,42.0,42.0,?
2017-08-07 12:02:21.869886,4509.63636319,3717.33333296,4540.03030258,4199.5151511,3830.15151477,428.606060563,3830.15151477,642.909090845,4239.18181776,494.545454496,4415.87878744,131.878787866,4182.5151511,3408.2424239,4340.15151472,3004.36363606,4966.06060556,3709.09090872,4126.36363595,440.969696926,4372.09090865,4166.54545413,4183.03030261,61.818181812,4781.63636316,3210.4242421,4376.72727229,140.121212107,42.0,42.0,?
2017-08-07 12:02:21.872316,4509.63636319,3717.33333296,4540.03030258,4199.5151511,3830.15151477,428.606060563,3830.15151477,642.909090845,4239.18181776,494.545454496,4416.90909047,131.878787866,4189.21212079,3408.2424239,4340.15151472,3004.36363606,4966.06060556,3709.09090872,4126.36363595,440.969696926,4372.09090865,4166.54545413,4183.03030261,61.818181812,4781.63636316,3210.4242421,4376.21212077,140.121212107,42.0,42.0,?
2017-08-07 12:02:21.882481,4504.48484803,3717.33333296,4538.48484803,4199.5151511,3827.06060568,428.606060563,3823.45454507,642.909090845,4234.03030261,494.545454496,4417.9393935,131.878787866,4186.1212117,3408.2424239,4342.72727229,3004.36363606,4963.9999995,3709.09090872,4122.75757535,440.969696926,4371.06060562,4166.54545413,4177.36363595,61.818181812,4780.09090861,3210.4242421,4381.36363593,140.121212107,42.0,42.0,?
2017-08-07 12:02:21.887332,4516.8484844,3717.33333296,4548.27272682,4199.5151511,3832.21212083,428.606060563,3827.06060568,642.909090845,4243.81818139,494.545454496,4413.81818138,131.878787866,4198.48484806,3408.2424239,4353.54545411,3004.36363606,4975.84848435,3709.09090872,4133.06060565,440.969696926,4389.09090865,4166.54545413,4194.36363594,61.818181812,4793.99999952,3210.4242421,4403.51515107,140.121212107,42.0,42.0,?
2017-08-07 12:02:21.897270,4516.8484844,3717.33333296,4548.27272682,4199.5151511,3832.21212083,428.606060563,3827.06060568,642.909090845,4243.81818139,494.545454496,4413.81818138,131.878787866,4198.48484806,3408.2424239,4353.54545411,3004.36363606,4975.84848435,3709.09090872,4133.06060565,440.969696926,4389.09090865,4166.54545413,4194.36363594,61.818181812,4793.99999952,3210.4242421,4403.51515107,140.121212107,42.0,42.0,?
2017-08-07 12:02:21.903664,4519.42424197,3717.33333296,4553.42424197,4199.5151511,3832.72727234,428.606060563,3834.27272689,642.909090845,4238.15151473,494.545454496,4417.42424198,131.878787866,4184.06060564,3408.2424239,4339.12121169,3004.36363606,4969.15151465,3709.09090872,4125.33333292,440.969696926,4383.9393935,4166.54545413,4185.09090867,61.818181812,4790.90909043,3210.4242421,4401.45454501,140.121212107,42.0,42.0,?
2017-08-07 12:02:21.915004,4519.42424197,3717.33333296,4553.42424197,4199.5151511,3832.72727234,428.606060563,3834.27272689,642.909090845,4234.54545412,494.545454496,4417.42424198,131.878787866,4184.06060564,3408.2424239,4339.12121169,3004.36363606,4969.15151465,3709.09090872,4125.33333292,440.969696926,4383.9393935,4166.54545413,4185.09090867,61.818181812,4790.90909043,3210.4242421,4401.45454501,140.121212107,42.0,42.0,?
2017-08-07 12:02:21.920032,4519.93939349,3717.33333296,4557.54545409,4199.5151511,3837.36363598,428.606060563,3834.7878784,642.909090845,4234.54545412,494.545454496,4413.30302986,131.878787866,4190.75757534,3408.2424239,4341.69696926,3004.36363606,4976.36363587,3709.09090872,4127.39393898,440.969696926,4388.57575714,4166.54545413,4201.06060564,61.818181812,4793.48484801,3210.4242421,4409.18181774,140.121212107,42.0,42.0,?
2017-08-07 12:02:21.922960,4514.27272682,3717.33333296,4559.60606015,4199.5151511,3837.36363598,428.606060563,3835.81818143,642.909090845,4236.60606018,494.545454496,4408.15151471,131.878787866,4194.87878746,3408.2424239,4346.3333329,3004.36363606,4988.72727223,3709.09090872,4129.45454504,440.969696926,4390.12121168,4166.54545413,4221.15151473,61.818181812,4790.39393891,3210.4242421,4407.6363632,140.121212107,42.0,42.0,?
2017-08-07 12:02:21.931716,4513.75757531,3717.33333296,4560.12121167,4199.5151511,3833.75757537,428.606060563,3833.75757537,642.909090845,4235.57575715,494.545454496,4415.87878744,131.878787866,4200.54545413,3408.2424239,4345.81818138,3004.36363606,4989.24242374,3709.09090872,4134.09090868,440.969696926,4388.06060562,4166.54545413,4214.96969655,61.818181812,4789.36363588,3210.4242421,4397.84848441,140.121212107,42.0,42.0,?
2017-08-07 12:02:21.938108,4518.90909046,3717.33333296,4561.1515147,4199.5151511,3834.7878784,428.606060563,3832.21212083,642.909090845,4239.18181776,494.545454496,4423.60606016,131.878787866,4204.15151473,3408.2424239,4347.36363593,3004.36363606,4980.9999995,3709.09090872,4136.66666625,440.969696926,4389.09090865,4166.54545413,4201.06060564,61.818181812,4793.48484801,3210.4242421,4398.87878744,140.121212107,42.0,42.0,?
2017-08-07 12:02:21.948089,4518.39393894,3717.33333296,4563.21212076,4199.5151511,3836.84848446,428.606060563,3835.30302992,642.909090845,4244.84848442,494.545454496,4421.5454541,131.878787866,4201.57575716,3408.2424239,4346.3333329,3004.36363606,4975.84848435,3709.09090872,4133.06060565,440.969696926,4388.06060562,4166.54545413,4197.96969655,61.818181812,4791.93939346,3210.4242421,4404.54545411,140.121212107,42.0,42.0,?
2017-08-07 12:02:21.954209,4514.27272682,3717.33333296,4561.66666621,4199.5151511,3833.75757537,428.606060563,3837.87878749,642.909090845,4239.69696927,494.545454496,4419.48484804,131.878787866,4195.39393897,3408.2424239,4343.75757532,3004.36363606,4973.27272678,3709.09090872,4130.48484807,440.969696926,4379.81818138,4166.54545413,4196.93939352,61.818181812,4785.24242376,3210.4242421,4401.45454501,140.121212107,42.0,42.0,?
2017-08-07 12:02:21.961374,4514.27272682,3717.33333296,4560.63636318,4199.5151511,3832.72727234,428.606060563,3834.7878784,642.909090845,4234.03030261,494.545454496,4419.99999956,131.878787866,4188.18181776,3408.2424239,4344.78787835,3004.36363606,4972.75757526,3709.09090872,4130.48484807,440.969696926,4373.6363632,4166.54545413,4194.36363594,61.818181812,4783.1818177,3210.4242421,4398.36363592,140.121212107,42.0,42.0,?
2017-08-07 12:02:21.969969,4515.81818137,3717.33333296,4568.36363591,4199.5151511,3834.27272689,428.606060563,3833.24242386,642.909090845,4237.1212117,494.545454496,4419.99999956,131.878787866,4190.24242382,3408.2424239,4345.30302987,3004.36363606,4976.36363587,3709.09090872,4126.36363595,440.969696926,4376.72727229,4166.54545413,4193.84848443,61.818181812,4786.27272679,3210.4242421,4400.42424198,140.121212107,42.0,42.0,?
2017-08-07 12:02:21.977566,4514.78787834,3717.33333296,4575.57575712,4199.5151511,3836.33333295,428.606060563,3833.75757537,642.909090845,4240.21212079,494.545454496,4418.45454501,131.878787866,4201.57575716,3408.2424239,4345.30302987,3004.36363606,4984.60606011,3709.09090872,4123.78787838,440.969696926,4380.84848441,4166.54545413,4191.27272685,61.818181812,4787.30302982,3210.4242421,4401.96969653,140.121212107,42.0,42.0,?
2017-08-07 12:02:21.985012,4514.78787834,3717.33333296,4574.03030257,4199.5151511,3836.33333295,428.606060563,3832.72727234,642.909090845,4238.15151473,494.545454496,4416.39393895,131.878787866,4206.72727231,3408.2424239,4351.48484805,3004.36363606,4988.72727223,3709.09090872,4126.87878747,440.969696926,4378.27272683,4166.54545413,4188.69696928,61.818181812,4783.69696922,3210.4242421,4400.42424198,140.121212107,42.0,42.0,?
2017-08-07 12:02:21.993635,4517.87878743,3717.33333296,4572.48484803,4199.5151511,3834.7878784,428.606060563,3834.7878784,642.909090845,4239.18181776,494.545454496,4417.42424198,131.878787866,4205.69696928,3408.2424239,4354.57575714,3004.36363606,4986.15151465,3709.09090872,4129.96969656,440.969696926,4378.27272683,4166.54545413,4194.87878746,61.818181812,4782.15151467,3210.4242421,4400.9393935,140.121212107,42.0,42.0,?
2017-08-07 12:02:21.999954,4517.87878743,3717.33333296,4576.60606015,4199.5151511,3833.75757537,428.606060563,3836.84848446,642.909090845,4246.90909048,494.545454496,4419.48484804,131.878787866,4203.1212117,3408.2424239,4349.42424199,3004.36363606,4983.57575708,3709.09090872,4130.99999959,440.969696926,4383.42424199,4166.54545413,4198.99999958,61.818181812,4782.15151467,3210.4242421,4405.06060562,140.121212107,42.0,42.0,?
2017-08-07 12:02:22.008086,4517.36363591,3717.33333296,4578.66666621,4199.5151511,3835.30302992,428.606060563,3834.7878784,642.909090845,4250.51515109,494.545454496,4419.48484804,131.878787866,4198.48484806,3408.2424239,4345.30302987,3004.36363606,4985.12121162,3709.09090872,4127.9090905,440.969696926,4380.84848441,4166.54545413,4194.87878746,61.818181812,4779.5757571,3210.4242421,4399.90909047,140.121212107,42.0,42.0,?
2017-08-07 12:02:22.017144,4518.90909046,3717.33333296,4576.09090863,4199.5151511,3833.75757537,428.606060563,3833.24242386,642.909090845,4242.78787836,494.545454496,4417.42424198,131.878787866,4192.30302988,3408.2424239,4342.72727229,3004.36363606,4986.15151465,3709.09090872,4123.27272686,440.969696926,4374.66666623,4166.54545413,4191.78787837,61.818181812,4779.5757571,3210.4242421,4391.15151471,140.121212107,42.0,42.0,?
2017-08-07 12:02:22.025003,4517.87878743,3717.33333296,4577.12121166,4199.5151511,3832.21212083,428.606060563,3834.7878784,642.909090845,4234.54545412,494.545454496,4415.36363592,131.878787866,4187.15151473,3408.2424239,4337.57575714,3004.36363606,4984.09090859,3709.09090872,4121.72727232,440.969696926,4374.66666623,4166.54545413,4190.24242382,61.818181812,4779.5757571,3210.4242421,4394.2424238,140.121212107,42.0,42.0,?
2017-08-07 12:02:22.032189,4518.90909046,3717.33333296,4585.87878742,4199.5151511,3838.39393901,428.606060563,3835.30302992,642.909090845,4238.66666624,494.545454496,4417.9393935,131.878787866,4187.66666625,3408.2424239,4343.24242381,3004.36363606,4981.51515102,3709.09090872,4121.72727232,440.969696926,4379.30302987,4166.54545413,4188.69696928,61.818181812,4780.09090861,3210.4242421,4402.48484804,140.121212107,42.0,42.0,?
2017-08-07 12:02:22.040234,4518.90909046,3717.33333296,4593.09090863,4199.5151511,3841.4848481,428.606060563,3834.7878784,642.909090845,4249.99999958,494.545454496,4424.12121168,131.878787866,4195.39393897,3408.2424239,4348.39393896,3004.36363606,4982.03030253,3709.09090872,4125.33333292,440.969696926,4383.42424199,4166.54545413,4202.09090867,61.818181812,4785.24242376,3210.4242421,4402.99999956,140.121212107,42.0,42.0,?
2017-08-07 12:02:22.048188,4518.90909046,3717.33333296,4591.03030257,4199.5151511,3837.87878749,428.606060563,3835.81818143,642.909090845,4252.57575715,494.545454496,4423.60606016,131.878787866,4194.87878746,3408.2424239,4336.0303026,3004.36363606,4988.21212071,3709.09090872,4125.84848444,440.969696926,4385.48484805,4166.54545413,4202.09090867,61.818181812,4789.36363588,3210.4242421,4399.39393895,140.121212107,42.0,42.0,?
2017-08-07 12:02:22.060180,4528.18181773,3717.33333296,4599.27272681,4199.5151511,3848.69696931,428.606060563,3848.1818178,642.909090845,4253.09090867,494.545454496,4428.75757531,131.878787866,4197.45454503,3408.2424239,4346.84848441,3004.36363606,5000.06060556,3709.09090872,4133.06060565,440.969696926,4394.75757532,4166.54545413,4217.03030261,61.818181812,4792.45454498,3210.4242421,4402.99999956,140.121212107,42.0,42.0,?
2017-08-07 12:02:22.064990,4528.18181773,3717.33333296,4599.27272681,4199.5151511,3848.69696931,428.606060563,3848.1818178,642.909090845,4253.09090867,494.545454496,4428.75757531,131.878787866,4197.45454503,3408.2424239,4346.84848441,3004.36363606,5000.06060556,3709.09090872,4133.06060565,440.969696926,4394.75757532,4166.54545413,4217.03030261,61.818181812,4792.45454498,3210.4242421,4402.99999956,140.121212107,42.0,42.0,?
2017-08-07 12:02:22.075566,4529.21212076,3717.33333296,4605.45454499,4199.5151511,3850.24242386,428.606060563,3848.1818178,642.909090845,4252.06060564,494.545454496,4429.78787834,131.878787866,4206.21212079,3408.2424239,4349.42424199,3004.36363606,5005.72727223,3709.09090872,4141.8181814,440.969696926,4394.2424238,4166.54545413,4222.69696927,61.818181812,4796.06060558,3210.4242421,4405.06060562,140.121212107,42.0,42.0,?
2017-08-07 12:02:22.086026,4525.09090864,3717.33333296,4603.90909045,4199.5151511,3848.1818178,428.606060563,3842.51515113,642.909090845,4248.45454503,494.545454496,4428.2424238,131.878787866,4202.60606019,3408.2424239,4341.69696926,3004.36363606,5008.81818132,3709.09090872,4140.78787837,440.969696926,4391.15151471,4166.54545413,4218.57575715,61.818181812,4795.54545407,3210.4242421,4404.54545411,140.121212107,42.0,42.0,?
2017-08-07 12:02:22.093225,4528.18181773,3717.33333296,4603.90909045,4199.5151511,3849.21212083,428.606060563,3843.54545416,642.909090845,4244.84848442,494.545454496,4429.27272683,131.878787866,4200.54545413,3408.2424239,4344.78787835,3004.36363606,5010.87878738,3709.09090872,4141.30302989,440.969696926,4398.36363592,4166.54545413,4217.03030261,61.818181812,4798.63636316,3210.4242421,4404.03030259,140.121212107,42.0,42.0,?
2017-08-07 12:02:22.097646,4532.30302985,3717.33333296,4607.51515105,4199.5151511,3848.1818178,428.606060563,3846.12121174,642.909090845,4246.39393897,494.545454496,4429.27272683,131.878787866,4203.63636322,3408.2424239,4347.87878744,3004.36363606,5011.90909041,3709.09090872,4143.87878746,440.969696926,4406.60606017,4166.54545413,4220.63636321,61.818181812,4807.39393891,3210.4242421,4402.48484804,140.121212107,42.0,42.0,?
2017-08-07 12:02:22.104012,4530.7575753,3717.33333296,4608.03030257,4199.5151511,3847.15151477,428.606060563,3842.51515113,642.909090845,4251.03030261,494.545454496,4430.30302986,131.878787866,4202.09090867,3408.2424239,4342.72727229,3004.36363606,5007.27272677,3709.09090872,4137.69696928,440.969696926,4400.9393935,4166.54545413,4219.09090867,61.818181812,4806.8787874,3210.4242421,4401.96969653,140.121212107,42.0,42.0,?
2017-08-07 12:02:22.110029,4526.63636318,3717.33333296,4607.51515105,4199.5151511,3847.66666628,428.606060563,3843.03030265,642.909090845,4253.60606018,494.545454496,4433.90909047,131.878787866,4202.09090867,3408.2424239,4345.81818138,3004.36363606,5004.18181768,3709.09090872,4134.60606019,440.969696926,4393.21212077,4166.54545413,4217.54545412,61.818181812,4799.15151467,3210.4242421,4402.99999956,140.121212107,42.0,42.0,?
