Timestamp,F3 Value,F3 Quality,FC5 Value,FC5 Quality,F7 Value,F7 Quality,T7 Value,T7 Quality,P7 Value,P7 Quality,O1 Value,O1 Quality,O2 Value,O2 Quality,P8 Value,P8 Quality,T8 Value,T8 Quality,F8 Value,F8 Quality,AF4 Value,AF4 Quality,FC6 Value,FC6 Quality,F4 Value,F4 Quality,AF3 Value,AF3 Quality,X Value,Y Value,Z Value
2017-08-07 13:37:57.381205,4546.72727227,0,4276.27272685,0,3917.72727234,0,3911.54545415,0,4298.93939351,0,4451.93939349,0,4205.69696928,0,4344.27272684,0,4973.78787829,0,4140.78787837,0,4411.75757532,0,4237.1212117,0,4819.75757528,0,4475.12121167,0,42.0,42.0,?
2017-08-07 13:37:57.382955,4385.99999956,0,4027.96969657,0,3749.2727269,0,4530.7575753,0,4158.30302989,0,4342.21212078,0,4037.24242384,0,4164.99999958,0,4820.78787831,0,3942.96969658,0,4200.03030261,0,4005.3030299,0,4647.69696923,0,4256.69696927,0,42.0,42.0,?
2017-08-07 13:37:57.387186,4394.75757532,0,4034.15151475,0,3753.90909053,0,4518.90909046,0,4162.42424201,0,4353.54545411,0,4058.36363596,0,4163.45454504,0,4818.72727225,0,3966.66666627,0,4209.8181814,0,4024.36363596,0,4655.93939347,0,4267.51515109,0,42.0,42.0,?
2017-08-07 13:37:57.390900,4398.87878744,0,4038.27272687,0,3758.54545417,0,4509.12121167,0,4167.57575716,0,4355.09090866,0,4060.42424202,0,4176.33333292,0,4837.7878783,0,3965.63636324,0,4211.36363594,0,4026.42424202,0,4656.9696965,0,4266.99999957,0,42.0,42.0,?
2017-08-07 13:37:57.399934,4407.12121168,0,4039.81818141,0,3755.45454508,0,4503.96969652,0,4178.39393898,0,4365.90909047,0,4064.03030262,0,4190.75757534,0,4847.06060558,0,3975.42424203,0,4224.24242382,0,4038.27272687,0,4669.84848438,0,4274.21212078,0,42.0,42.0,?
2017-08-07 13:37:57.401148,4413.81818138,0,4038.78787838,0,3757.51515114,0,4490.57575713,0,4171.18181776,0,4359.21212078,0,4063.51515111,0,4183.03030261,0,4829.03030255,0,3986.24242384,0,4231.96969655,0,4044.96969657,0,4675.51515105,0,4281.424242,0,42.0,42.0,?
2017-08-07 13:37:57.406156,4411.75757532,0,4044.45454505,0,3767.30302993,0,4480.78787834,0,4167.57575716,0,4351.48484805,0,4064.54545414,0,4173.24242383,0,4826.45454497,0,3989.84848445,0,4228.87878746,0,4044.45454505,0,4674.48484802,0,4282.96969654,0,42.0,42.0,?
2017-08-07 13:37:57.409248,4412.27272683,0,4044.45454505,0,3765.24242387,0,4483.36363592,0,4181.48484807,0,4364.36363593,0,4066.09090868,0,4175.30302989,0,4831.09090861,0,3987.27272687,0,4231.45454503,0,4042.39393899,0,4680.15151468,0,4281.424242,0,42.0,42.0,?
2017-08-07 13:37:57.414135,4413.81818138,0,4037.24242384,0,3758.03030265,0,4477.69696925,0,4180.45454504,0,4367.45454502,0,4059.9090905,0,4180.96969655,0,4819.24242376,0,3985.72727233,0,4235.06060564,0,4041.36363596,0,4683.75757529,0,4281.424242,0,42.0,42.0,?
2017-08-07 13:37:57.416896,4408.15151471,0,4036.72727232,0,3762.66666629,0,4464.30302986,0,4171.18181776,0,4359.72727229,0,4056.81818141,0,4184.57575716,0,4825.93939346,0,3997.06060566,0,4224.75757534,0,4044.96969657,0,4677.57575711,0,4285.54545412,0,42.0,42.0,?
2017-08-07 13:37:57.420122,4414.33333289,0,4038.78787838,0,3756.99999962,0,4464.81818137,0,4172.21212079,0,4366.42424199,0,4056.3030299,0,4172.72727231,0,4836.75757527,0,3996.03030263,0,4239.69696927,0,4044.96969657,0,4683.24242377,0,4282.45454503,0,42.0,42.0,?
2017-08-07 13:37:57.423285,4414.33333289,0,4037.75757535,0,3750.30302993,0,4457.60606016,0,4174.27272686,0,4365.39393896,0,4060.42424202,0,4168.09090867,0,4825.42424194,0,3986.75757536,0,4243.81818139,0,4039.81818141,0,4683.24242377,0,4275.24242381,0,42.0,42.0,?
2017-08-07 13:37:57.426493,4405.06060562,0,4041.36363596,0,3761.63636326,0,4432.87878744,0,4179.93939352,0,4364.87878744,0,4076.39393899,0,4194.36363594,0,4823.8787874,0,3998.60606021,0,4221.66666624,0,4048.06060566,0,4675.51515105,0,4282.45454503,0,42.0,42.0,?
2017-08-07 13:37:57.432725,4416.90909047,0,4047.54545414,0,3766.2727269,0,4435.45454501,0,4190.24242382,0,4380.3333329,0,4084.63636323,0,4206.21212079,0,4839.33333285,0,4008.90909051,0,4240.21212079,0,4059.9090905,0,4690.9696965,0,4292.75757533,0,42.0,42.0,?
2017-08-07 13:37:57.436090,4424.63636319,0,4052.69696929,0,3765.24242387,0,4452.96969652,0,4192.8181814,0,4378.27272683,0,4078.45454505,0,4191.27272685,0,4845.51515103,0,4005.3030299,0,4253.09090867,0,4058.36363596,0,4697.6666662,0,4294.81818139,0,42.0,42.0,?
2017-08-07 13:37:57.439247,4430.30302986,0,4061.96969656,0,3773.48484811,0,4457.60606016,0,4190.75757534,0,4370.54545411,0,4075.87878747,0,4191.78787837,0,4831.09090861,0,4020.75757536,0,4248.96969654,0,4073.3030299,0,4699.72727226,0,4302.0303026,0,42.0,42.0,?
2017-08-07 13:37:57.442437,4442.66666622,0,4067.12121171,0,3781.21212083,0,4459.15151471,0,4194.87878746,0,4380.3333329,0,4081.03030262,0,4204.66666625,0,4830.06060558,0,4044.45454505,0,4259.78787836,0,4098.03030262,0,4713.63636317,0,4312.3333329,0,42.0,42.0,?
2017-08-07 13:37:57.445428,4439.06060562,0,4064.54545414,0,3782.24242386,0,4465.8484844,0,4191.78787837,0,4380.3333329,0,4083.09090868,0,4203.1212117,0,4849.12121164,0,4044.96969657,0,4258.24242382,0,4098.54545414,0,4714.6666662,0,4314.90909048,0,42.0,42.0,?
2017-08-07 13:37:57.454144,4440.09090865,0,4066.09090868,0,3783.27272689,0,4482.8484844,0,4181.99999958,0,4367.45454502,0,4075.87878747,0,4196.93939352,0,4844.484848,0,4037.75757535,0,4256.69696927,0,4093.39393898,0,4710.54545407,0,4312.84848442,0,42.0,42.0,?
2017-08-07 13:37:57.460709,4448.8484844,0,4070.72727232,0,3787.90909053,0,4490.06060561,0,4188.69696928,0,4367.96969653,0,4074.84848444,0,4198.99999958,0,4831.09090861,0,4045.48484808,0,4263.90909048,0,4105.24242383,0,4716.21212074,0,4315.93939351,0,42.0,42.0,?
2017-08-07 13:37:57.470204,4450.90909046,0,4070.72727232,0,3789.45454508,0,4483.36363592,0,4204.15151473,0,4380.84848441,0,4091.33333292,0,4209.8181814,0,4842.93939346,0,4057.84848444,0,4271.12121169,0,4120.18181777,0,4727.03030256,0,4318.51515108,0,42.0,42.0,?
2017-08-07 13:37:57.475573,4451.93939349,0,4065.06060565,0,3784.81818144,0,4489.5454541,0,4198.48484806,0,4380.84848441,0,4099.57575717,0,4214.96969655,0,4848.09090861,0,4060.93939353,0,4276.78787836,0,4126.36363595,0,4731.66666619,0,4314.90909048,0,42.0,42.0,?
2017-08-07 13:37:57.483727,4448.33333289,0,4059.9090905,0,3776.5757572,0,4514.27272682,0,4185.60606019,0,4370.03030259,0,4078.96969656,0,4197.96969655,0,4833.15151467,0,4056.81818141,0,4270.09090866,0,4120.69696928,0,4721.87878741,0,4309.24242381,0,42.0,42.0,?
2017-08-07 13:37:57.495284,4445.2424238,0,4061.45454505,0,3773.99999962,0,4528.69696924,0,4192.8181814,0,4377.2424238,0,4073.81818141,0,4186.63636322,0,4817.69696922,0,4052.69696929,0,4265.45454503,0,4115.54545413,0,4716.21212074,0,4308.21212078,0,42.0,42.0,?
2017-08-07 13:37:57.499324,4449.36363592,0,4058.87878747,0,3773.99999962,0,4520.96969652,0,4198.99999958,0,4393.21212077,0,4089.78787838,0,4195.39393897,0,4807.90909043,0,4055.27272687,0,4275.24242381,0,4121.2121208,0,4724.45454498,0,4312.3333329,0,42.0,42.0,?
2017-08-07 13:37:57.507557,4452.96969652,0,4052.18181778,0,3767.30302993,0,4526.12121167,0,4188.18181776,0,4387.54545411,0,4089.78787838,0,4193.33333291,0,4806.8787874,0,4057.84848444,0,4280.39393897,0,4127.9090905,0,4728.5757571,0,4313.36363593,0,42.0,42.0,?
2017-08-07 13:37:57.515601,4453.99999955,3878.06060567,4053.21212081,0,3766.2727269,0,4537.96969652,0,4184.57575716,0,4377.2424238,0,4079.48484808,0,4183.54545413,0,4815.12121164,0,4052.69696929,0,4278.33333291,0,4127.39393898,0,4726.51515104,0,4312.84848442,0,42.0,42.0,?
2017-08-07 13:37:57.522575,4455.03030258,3878.06060567,4056.3030299,4154.18181777,3772.45454508,0,4534.87878743,0,4200.03030261,0,4384.96969653,0,4080.51515111,0,4190.75757534,0,4817.1818177,0,4053.21212081,0,4286.06060563,0,4133.06060565,0,4729.09090862,0,4315.42424199,0,42.0,42.0,?
2017-08-07 13:37:57.533044,4456.06060561,3878.06060567,4053.72727232,4154.18181777,3773.48484811,0,4557.03030257,0,4203.1212117,0,4388.57575714,0,4081.03030262,0,4193.84848443,0,4800.69696922,0,4057.84848444,0,4296.87878745,0,4140.78787837,0,4728.5757571,0,4315.42424199,144.242424228,42.0,42.0,?
2017-08-07 13:37:57.539884,4459.15151471,3878.06060567,4050.63636323,4154.18181777,3772.96969659,552.242424187,4605.45454499,0,4183.03030261,0,4377.75757532,0,4074.84848444,0,4185.60606019,0,4782.66666619,0,4062.48484808,0,4298.42424199,0,4143.36363595,0,4725.48484801,0,4314.90909048,144.242424228,42.0,42.0,?
2017-08-07 13:37:57.547425,4466.36363592,3878.06060567,4054.24242384,4154.18181777,3781.21212083,552.242424187,4621.42424196,8.2424242416,4174.27272686,0,4377.75757532,0,4085.15151474,0,4194.36363594,0,4788.33333285,0,4071.24242384,0,4306.66666624,0,4149.54545413,0,4731.15151468,0,4320.57575714,144.242424228,42.0,42.0,?
2017-08-07 13:37:57.558377,4467.39393895,3878.06060567,4054.24242384,4154.18181777,3781.72727235,552.242424187,4602.87878742,8.2424242416,4184.57575716,407.999999959,4384.45454502,0,4093.9090905,0,4204.66666625,0,4803.27272679,0,4077.42424202,0,4319.54545411,0,4156.24242383,0,4733.72727225,0,4319.54545411,144.242424228,42.0,42.0,?
2017-08-07 13:37:57.563706,4461.21212077,3878.06060567,4047.54545414,4154.18181777,3773.99999962,552.242424187,4606.48484802,8.2424242416,4185.60606019,407.999999959,4380.84848441,214.303030282,4084.12121171,0,4197.45454503,0,4800.1818177,0,4072.27272687,0,4318.51515108,0,4152.12121171,0,4726.51515104,0,4311.30302987,144.242424228,42.0,42.0,?
2017-08-07 13:37:57.569609,4455.03030258,3878.06060567,4042.9090905,4154.18181777,3772.96969659,552.242424187,4632.75757529,8.2424242416,4175.30302989,407.999999959,4377.75757532,214.303030282,4079.99999959,3733.81818144,4193.33333291,0,4783.69696922,0,4067.63636323,0,4310.27272684,0,4144.39393898,0,4720.33333286,0,4309.75757533,144.242424228,42.0,42.0,?
2017-08-07 13:37:57.577066,4454.51515107,3878.06060567,4047.03030263,4154.18181777,3776.06060568,552.242424187,4649.24242378,8.2424242416,4172.21212079,407.999999959,4380.84848441,214.303030282,4083.09090868,3733.81818144,4195.39393897,3132.12121181,4774.42424195,0,4072.27272687,0,4312.3333329,0,4146.96969656,0,4720.33333286,0,4312.84848442,144.242424228,42.0,42.0,?
2017-08-07 13:37:57.592228,4461.72727228,3878.06060567,4053.72727232,4154.18181777,3777.60606023,552.242424187,4654.39393893,8.2424242416,4177.36363595,407.999999959,4377.2424238,214.303030282,4073.3030299,3733.81818144,4184.06060564,3132.12121181,4771.84848437,3334.06060573,4079.99999959,0,4317.48484805,0,4153.66666625,0,4723.42424195,0,4313.87878745,144.242424228,42.0,42.0,?
2017-08-07 13:37:57.594305,4458.63636319,3878.06060567,4054.24242384,4154.18181777,3783.27272689,552.242424187,4649.75757529,8.2424242416,4184.06060564,407.999999959,4375.18181774,214.303030282,4068.66666626,3733.81818144,4180.45454504,3132.12121181,4782.66666619,3334.06060573,4088.75757535,531.636363583,4307.18181775,0,4156.75757534,0,4724.9696965,0,4316.45454502,144.242424228,42.0,42.0,?
2017-08-07 13:37:57.602353,4457.09090865,3878.06060567,4059.9090905,4154.18181777,3788.42424205,552.242424187,4651.30302984,8.2424242416,4181.99999958,407.999999959,4381.87878744,214.303030282,4078.45454505,3733.81818144,4192.30302988,3132.12121181,4790.39393891,3334.06060573,4094.42424201,531.636363583,4300.48484805,3618.42424206,4157.27272686,0,4725.99999953,0,4320.57575714,144.242424228,42.0,42.0,?
2017-08-07 13:37:57.608764,4472.03030258,3878.06060567,4066.09090868,4154.18181777,3790.99999962,552.242424187,4658.51515105,8.2424242416,4175.8181814,407.999999959,4383.9393935,214.303030282,4075.87878747,3733.81818144,4191.78787837,3132.12121181,4780.09090861,3334.06060573,4094.42424201,531.636363583,4312.3333329,3618.42424206,4157.78787837,8.2424242416,4732.18181771,0,4326.75757532,144.242424228,42.0,42.0,?
2017-08-07 13:37:57.616819,4476.66666622,3878.06060567,4059.9090905,4154.18181777,3794.09090871,552.242424187,4655.93939347,8.2424242416,4183.03030261,407.999999959,4379.81818138,214.303030282,4073.81818141,3733.81818144,4187.66666625,3132.12121181,4782.66666619,3334.06060573,4096.99999959,531.636363583,4314.90909048,3618.42424206,4162.93939352,8.2424242416,4735.78787831,3783.27272689,4330.87878745,144.242424228,42.0,42.0,?
2017-08-07 13:37:57.627482,4470.48484804,3878.06060567,4057.84848444,4154.18181777,3793.5757572,552.242424187,4647.69696923,8.2424242416,4188.69696928,407.999999959,4377.2424238,214.303030282,4083.6060602,3733.81818144,4192.8181814,3132.12121181,4785.75757528,3334.06060573,4098.03030262,531.636363583,4310.78787836,3618.42424206,4165.5151511,8.2424242416,4734.24242377,3783.27272689,4327.78787836,144.242424228,42.0,42.0,?
2017-08-07 13:37:57.636539,4471.51515107,3878.06060567,4070.21212081,4154.18181777,3791.51515114,552.242424187,4644.60606014,8.2424242416,4185.60606019,407.999999959,4382.39393896,214.303030282,4089.27272686,3733.81818144,4201.06060564,3132.12121181,4779.5757571,3334.06060573,4099.57575717,531.636363583,4313.87878745,3622.54545418,4164.99999958,8.2424242416,4738.36363589,3783.27272689,4325.72727229,144.242424228,42.0,42.0,?
2017-08-07 13:37:57.641030,4473.06060561,3878.06060567,4075.87878747,4154.18181777,3793.06060568,552.242424187,4648.21212075,8.2424242416,4190.75757534,407.999999959,4391.15151471,214.303030282,4088.75757535,3733.81818144,4202.60606019,3132.12121181,4781.12121164,3334.06060573,4098.54545414,531.636363583,4310.78787836,3622.54545418,4161.39393898,8.2424242416,4737.84848437,3783.27272689,4329.3333329,144.242424228,42.0,42.0,?
2017-08-07 13:37:57.647450,4469.96969652,3878.06060567,4066.09090868,4154.18181777,3790.48484811,552.242424187,4645.63636317,8.2424242416,4201.06060564,407.999999959,4396.30302986,214.303030282,4084.12121171,3733.81818144,4194.36363594,3132.12121181,4779.5757571,3334.06060573,4091.84848444,531.636363583,4307.18181775,3622.54545418,4157.78787837,8.2424242416,4730.63636316,3783.27272689,4326.24242381,144.242424228,42.0,42.0,?
2017-08-07 13:37:57.662273,4464.81818137,3878.06060567,4063.51515111,4154.18181777,3790.99999962,552.242424187,4629.6666662,8.2424242416,4204.66666625,407.999999959,4395.27272683,214.303030282,4072.78787838,3733.81818144,4190.75757534,3132.12121181,4774.93939346,3334.06060573,4092.36363595,531.636363583,4309.24242381,3622.54545418,4153.66666625,8.2424242416,4727.03030256,3783.27272689,4322.6363632,144.242424228,42.0,42.0,?
2017-08-07 13:37:57.664181,4465.33333289,3878.06060567,4069.18181777,4154.18181777,3797.1818178,552.242424187,4618.33333287,8.2424242416,4204.15151473,407.999999959,4392.69696926,214.303030282,4073.3030299,3733.81818144,4200.54545413,3132.12121181,4785.75757528,3334.06060573,4104.2121208,531.636363583,4313.87878745,3622.54545418,4152.63636322,8.2424242416,4730.63636316,3783.27272689,4329.3333329,144.242424228,42.0,42.0,?
2017-08-07 13:37:57.672794,4471.51515107,3878.06060567,4069.69696929,4154.18181777,3798.21212083,552.242424187,4616.27272681,8.2424242416,4201.06060564,407.999999959,4386.51515108,214.303030282,4092.36363595,3733.81818144,4213.93939352,3132.12121181,4801.21212073,3334.06060573,4112.96969656,531.636363583,4319.54545411,3622.54545418,4156.75757534,8.2424242416,4738.8787874,3783.27272689,4338.60606017,144.242424228,42.0,42.0,?
2017-08-07 13:37:57.679560,4478.72727228,3878.06060567,4068.15151474,4154.18181777,3798.21212083,552.242424187,4609.57575711,8.2424242416,4192.8181814,407.999999959,4380.84848441,214.303030282,4096.99999959,3733.81818144,4213.93939352,3132.12121181,4803.78787831,3334.06060573,4118.12121171,531.636363583,4322.6363632,3622.54545418,4157.78787837,8.2424242416,4749.69696922,3783.27272689,4342.72727229,144.242424228,42.0,42.0,?
2017-08-07 13:37:57.690510,4483.87878743,3878.06060567,4072.27272687,4154.18181777,3807.99999962,552.242424187,4602.3636359,8.2424242416,4186.1212117,407.999999959,4382.39393896,214.303030282,4088.75757535,3733.81818144,4201.57575716,3132.12121181,4805.84848437,3334.06060573,4128.93939353,531.636363583,4329.3333329,3622.54545418,4156.24242383,8.2424242416,4756.90909043,3783.27272689,4347.87878744,144.242424228,42.0,42.0,?
2017-08-07 13:37:57.695652,4481.30302985,3878.06060567,4073.3030299,4154.18181777,3801.30302992,552.242424187,4594.63636318,8.2424242416,4187.15151473,407.999999959,4389.60606017,214.303030282,4101.12121171,3733.81818144,4203.1212117,3132.12121181,4814.60606012,3334.06060573,4128.42424201,531.636363583,4333.45454502,3622.54545418,4154.69696928,8.2424242416,4755.36363589,3783.27272689,4350.45454502,144.242424228,42.0,42.0,?
2017-08-07 13:37:57.702489,4478.72727228,3878.06060567,4066.09090868,4154.18181777,3778.12121174,552.242424187,4581.7575753,8.2424242416,4188.69696928,407.999999959,4395.27272683,214.303030282,4118.63636322,3733.81818144,4222.18181776,3132.12121181,4821.30302982,3334.06060573,4112.45454504,531.636363583,4325.72727229,3622.54545418,4149.54545413,8.2424242416,4755.36363589,3783.27272689,4345.30302987,144.242424228,42.0,42.0,?
2017-08-07 13:37:57.710798,4478.72727228,3878.06060567,4068.15151474,4154.18181777,3786.8787875,552.242424187,4569.39393894,8.2424242416,4194.87878746,407.999999959,4394.2424238,214.303030282,4118.63636322,3733.81818144,4226.8181814,3132.12121181,4821.81818134,3334.06060573,4110.9090905,531.636363583,4318.51515108,3622.54545418,4142.84848443,8.2424242416,4752.78787831,3783.27272689,4344.27272684,144.242424228,42.0,42.0,?
2017-08-07 13:37:57.717903,4477.18181773,3878.06060567,4078.96969656,4154.18181777,3818.81818144,552.242424187,4565.78787833,8.2424242416,4202.60606019,407.999999959,4388.57575714,214.303030282,4117.09090868,3733.81818144,4217.54545412,3132.12121181,4816.66666619,3334.06060573,4117.60606019,531.636363583,4319.0303026,3622.54545418,4139.24242383,8.2424242416,4742.48484801,3783.27272689,4347.36363593,144.242424228,42.0,42.0,?
2017-08-07 13:37:57.726669,4477.69696925,3878.06060567,4081.54545414,4154.18181777,3826.03030265,552.242424187,4563.21212076,8.2424242416,4201.06060564,407.999999959,4385.48484805,214.303030282,4119.15151474,3733.81818144,4226.8181814,3132.12121181,4812.03030255,3334.06060573,4104.72727232,531.636363583,4315.93939351,3622.54545418,4135.63636322,8.2424242416,4738.36363589,3783.27272689,4345.81818138,144.242424228,42.0,42.0,?
2017-08-07 13:37:57.734162,4479.75757531,3878.06060567,4081.54545414,4154.18181777,3822.93939356,552.242424187,4555.48484803,8.2424242416,4198.99999958,407.999999959,4382.39393896,214.303030282,4117.09090868,3733.81818144,4240.7272723,3132.12121181,4812.03030255,3334.06060573,4088.75757535,531.636363583,4307.69696927,3622.54545418,4125.33333292,8.2424242416,4741.9696965,3783.27272689,4346.84848441,144.242424228,42.0,42.0,?
2017-08-07 13:37:57.741438,4473.57575713,3878.06060567,4081.54545414,4154.18181777,3827.57575719,552.242424187,4546.21212076,8.2424242416,4205.18181776,407.999999959,4380.3333329,214.303030282,4112.96969656,3733.81818144,4228.36363594,3132.12121181,4807.39393891,3334.06060573,4085.15151474,531.636363583,4301.51515109,3622.54545418,4117.09090868,8.2424242416,4735.2727268,3783.27272689,4344.78787835,144.242424228,42.0,42.0,?
2017-08-07 13:37:57.748892,4463.78787834,3878.06060567,4076.39393899,4154.18181777,3818.81818144,552.242424187,4531.78787833,8.2424242416,4203.1212117,407.999999959,4384.45454502,214.303030282,4102.66666626,3733.81818144,4202.09090867,3132.12121181,4796.06060558,3334.06060573,4082.06060565,531.636363583,4293.27272684,3622.54545418,4110.39393898,8.2424242416,4717.75757529,3783.27272689,4333.45454502,144.242424228,42.0,42.0,?
2017-08-07 13:37:57.758944,4467.39393895,3878.06060567,4077.93939353,4154.18181777,3813.15151477,552.242424187,4522.51515106,8.2424242416,4188.69696928,407.999999959,4388.06060562,214.303030282,4094.42424201,3733.81818144,4193.84848443,3132.12121181,4795.54545407,3334.06060573,4083.6060602,531.636363583,4290.69696927,3622.54545418,4110.9090905,8.2424242416,4716.72727226,3783.27272689,4333.96969654,144.242424228,42.0,42.0,?
2017-08-07 13:37:57.764975,4478.21212076,3878.06060567,4087.72727232,4154.18181777,3824.99999962,552.242424187,4525.09090864,8.2424242416,4188.69696928,407.999999959,4384.45454502,214.303030282,4103.18181777,3733.81818144,4206.72727231,3132.12121181,4810.99999952,3334.06060573,4094.42424201,531.636363583,4301.51515109,3622.54545418,4117.60606019,8.2424242416,4731.15151468,3783.27272689,4346.84848441,144.242424228,42.0,42.0,?
2017-08-07 13:37:57.774608,4477.18181773,3878.06060567,4085.66666626,4154.18181777,3821.90909053,552.242424187,4521.99999955,8.2424242416,4199.5151511,407.999999959,4383.42424199,214.303030282,4109.36363595,3733.81818144,4212.39393897,3132.12121181,4816.66666619,3334.06060573,4094.93939353,531.636363583,4302.54545412,3622.54545418,4117.09090868,8.2424242416,4730.63636316,3783.27272689,4346.84848441,144.242424228,42.0,42.0,?
2017-08-07 13:37:57.780579,4475.12121167,3878.06060567,4083.09090868,4154.18181777,3815.21212083,552.242424187,4511.18181773,8.2424242416,4194.87878746,407.999999959,4386.51515108,214.303030282,4102.66666626,3733.81818144,4205.69696928,3132.12121181,4815.63636315,3334.06060573,4088.24242383,531.636363583,4293.27272684,3622.54545418,4116.57575716,8.2424242416,4720.84848438,3783.27272689,4343.24242381,144.242424228,42.0,42.0,?
2017-08-07 13:37:57.789475,4482.8484844,3878.06060567,4088.75757535,4154.18181777,3821.90909053,552.242424187,4507.06060561,8.2424242416,4190.75757534,407.999999959,4389.09090865,214.303030282,4109.36363595,3733.81818144,4210.33333291,3132.12121181,4829.54545406,3334.06060573,4093.39393898,531.636363583,4295.3333329,3622.54545418,4125.84848444,8.2424242416,4727.54545407,3783.27272689,4350.96969653,144.242424228,42.0,42.0,?
2017-08-07 13:37:57.796358,4482.33333289,3878.06060567,4086.69696929,4154.18181777,3822.93939356,552.242424187,4496.75757531,8.2424242416,4199.5151511,407.999999959,4389.60606017,214.303030282,4121.72727232,3733.81818144,4221.66666624,3132.12121181,4838.30302982,3334.06060573,4097.51515111,531.636363583,4300.99999957,3622.54545418,4126.87878747,8.2424242416,4734.75757528,3783.27272689,4350.45454502,144.242424228,42.0,42.0,?
2017-08-07 13:37:57.804750,4474.60606016,3878.06060567,4076.39393899,4154.18181777,3815.21212083,552.242424187,4480.27272682,8.2424242416,4203.63636322,407.999999959,4384.96969653,214.303030282,4111.42424201,3733.81818144,4221.15151473,3132.12121181,4833.66666618,3334.06060573,4088.24242383,531.636363583,4297.39393896,3622.54545418,4123.78787838,8.2424242416,4729.60606013,3783.27272689,4342.72727229,144.242424228,42.0,42.0,?
2017-08-07 13:37:57.812000,4481.30302985,3878.06060567,4078.96969656,4154.18181777,3818.81818144,552.242424187,4472.03030258,8.2424242416,4200.03030261,407.999999959,4385.99999956,214.303030282,4103.69696929,3733.81818144,4216.51515109,3132.12121181,4842.42424194,3334.06060573,4090.30302989,531.636363583,4304.09090866,3622.54545418,4136.15151474,8.2424242416,4738.8787874,3783.27272689,4350.96969653,144.242424228,42.0,42.0,?
2017-08-07 13:37:57.819447,4497.78787834,3878.06060567,4093.39393898,4154.18181777,3834.27272689,552.242424187,4446.78787834,8.2424242416,4202.60606019,407.999999959,4399.39393895,214.303030282,4118.63636322,3733.81818144,4220.63636321,3132.12121181,4856.33333285,3334.06060573,4107.30302989,531.636363583,4321.60606017,3622.54545418,4153.15151474,8.2424242416,4761.54545407,3783.27272689,4369.51515108,144.242424228,42.0,42.0,?
2017-08-07 13:37:57.827296,4502.42424197,3878.06060567,4096.99999959,4154.18181777,3846.12121174,552.242424187,4400.9393935,8.2424242416,4212.39393897,407.999999959,4404.54545411,214.303030282,4119.15151474,3733.81818144,4226.30302988,3132.12121181,4853.75757527,3334.06060573,4112.96969656,531.636363583,4328.81818139,3622.54545418,4158.8181814,8.2424242416,4770.81818134,3783.27272689,4379.30302987,144.242424228,42.0,42.0,?
2017-08-07 13:37:57.836922,4498.81818137,3878.06060567,4089.78787838,4154.18181777,3850.24242386,552.242424187,4376.72727229,8.2424242416,4221.15151473,407.999999959,4395.78787835,214.303030282,4106.78787838,3733.81818144,4229.39393897,3132.12121181,4857.36363588,3334.06060573,4108.33333292,531.636363583,4330.36363593,3622.54545418,4164.48484807,8.2424242416,4764.63636316,3783.27272689,4377.75757532,144.242424228,42.0,42.0,?
2017-08-07 13:37:57.843107,4498.81818137,3878.06060567,4088.75757535,4154.18181777,3850.24242386,552.242424187,4379.81818138,8.2424242416,4216.51515109,407.999999959,4393.21212077,214.303030282,4114.5151511,3733.81818144,4236.60606018,3132.12121181,4873.33333285,3334.06060573,4109.36363595,531.636363583,4333.96969654,3622.54545418,4168.09090867,8.2424242416,4762.06060558,3783.27272689,4373.12121168,144.242424228,42.0,42.0,?
2017-08-07 13:37:57.850956,4501.90909046,3878.06060567,4091.33333292,4154.18181777,3852.81818143,552.242424187,4376.72727229,8.2424242416,4208.78787837,407.999999959,4401.45454501,214.303030282,4126.87878747,3733.81818144,4237.63636321,3132.12121181,4873.33333285,3334.06060573,4105.75757535,531.636363583,4336.0303026,3622.54545418,4164.99999958,8.2424242416,4764.63636316,3783.27272689,4371.57575714,144.242424228,42.0,42.0,?
2017-08-07 13:37:57.859620,4500.87878743,3878.06060567,4089.78787838,4154.18181777,3853.33333295,552.242424187,4362.81818138,8.2424242416,4215.99999958,407.999999959,4406.09090865,214.303030282,4123.78787838,3733.81818144,4231.96969655,3132.12121181,4863.54545406,3334.06060573,4099.57575717,531.636363583,4333.45454502,3622.54545418,4165.5151511,8.2424242416,4761.03030255,3783.27272689,4371.06060562,144.242424228,42.0,42.0,?
2017-08-07 13:37:57.871722,4497.27272682,3878.06060567,4090.81818141,4154.18181777,3852.30302992,552.242424187,4355.09090866,8.2424242416,4221.15151473,407.999999959,4406.09090865,214.303030282,4131.5151511,3733.81818144,4240.7272723,3132.12121181,4865.0909086,3334.06060573,4104.72727232,531.636363583,4334.99999957,3622.54545418,4169.1212117,8.2424242416,4762.5757571,3783.27272689,4370.03030259,144.242424228,42.0,42.0,?
2017-08-07 13:37:57.876800,4500.87878743,3878.06060567,4095.45454505,4154.18181777,3856.42424204,552.242424187,4355.09090866,8.2424242416,4218.57575715,407.999999959,4407.12121168,214.303030282,4146.45454504,3733.81818144,4255.66666624,3132.12121181,4869.21212073,3334.06060573,4111.93939353,531.636363583,4344.78787835,3622.54545418,4178.39393898,8.2424242416,4771.33333286,3783.27272689,4370.03030259,144.242424228,42.0,42.0,?
2017-08-07 13:37:57.886396,4502.42424197,3878.06060567,4094.93939353,4154.18181777,3857.45454507,552.242424187,4352.51515108,8.2424242416,4221.66666624,407.999999959,4411.75757532,214.303030282,4140.27272686,3733.81818144,4245.87878745,3132.12121181,4864.57575709,3334.06060573,4106.27272686,531.636363583,4346.3333329,3622.54545418,4184.57575716,8.2424242416,4767.72727225,3783.27272689,4368.99999956,144.242424228,42.0,42.0,?
2017-08-07 13:37:57.890900,4499.33333288,3878.06060567,4093.39393898,4154.18181777,3858.4848481,552.242424187,4343.24242381,8.2424242416,4221.66666624,407.999999959,4410.21212077,214.303030282,4128.42424201,3733.81818144,4232.99999958,3132.12121181,4866.12121163,3334.06060573,4101.12121171,531.636363583,4342.72727229,3622.54545418,4183.54545413,8.2424242416,4758.96969649,3783.27272689,4369.51515108,144.242424228,42.0,42.0,?
2017-08-07 13:37:57.901629,4501.90909046,3878.06060567,4095.45454505,4154.18181777,3863.12121173,552.242424187,4333.45454502,8.2424242416,4217.03030261,407.999999959,4400.42424198,214.303030282,4135.12121171,3733.81818144,4244.84848442,3132.12121181,4878.484848,3334.06060573,4107.30302989,531.636363583,4347.87878744,3622.54545418,4186.63636322,8.2424242416,4763.60606013,3783.27272689,4371.06060562,144.242424228,42.0,42.0,?
2017-08-07 13:37:57.909181,4500.87878743,3878.06060567,4091.33333292,4154.18181777,3858.4848481,552.242424187,4327.27272684,8.2424242416,4219.09090867,407.999999959,4396.81818138,214.303030282,4146.45454504,3733.81818144,4256.18181776,3132.12121181,4881.06060557,3334.06060573,4111.42424201,531.636363583,4347.87878744,3622.54545418,4187.66666625,8.2424242416,4765.66666619,3783.27272689,4367.96969653,144.242424228,42.0,42.0,?
2017-08-07 13:37:57.914010,4493.66666622,3878.06060567,4086.69696929,4154.18181777,3856.42424204,552.242424187,4313.87878745,8.2424242416,4218.57575715,407.999999959,4400.42424198,214.303030282,4142.84848443,3733.81818144,4248.45454503,3132.12121181,4866.63636315,3334.06060573,4108.84848444,531.636363583,4340.15151472,3622.54545418,4176.84848443,8.2424242416,4758.45454498,3783.27272689,4367.45454502,144.242424228,42.0,42.0,?
2017-08-07 13:37:57.921539,4494.69696925,3878.06060567,4090.30302989,4154.18181777,3862.0909087,552.242424187,4296.36363593,8.2424242416,4216.51515109,407.999999959,4406.60606017,214.303030282,4136.66666625,3733.81818144,4244.84848442,3132.12121181,4861.99999951,3334.06060573,4109.36363595,531.636363583,4344.27272684,3622.54545418,4174.78787837,8.2424242416,4764.63636316,3783.27272689,4370.03030259,144.242424228,42.0,42.0,?
2017-08-07 13:37:57.928940,4503.454545,3878.06060567,4092.87878747,4154.18181777,3853.84848446,552.242424187,4286.57575715,8.2424242416,4228.36363594,407.999999959,4417.9393935,214.303030282,4146.45454504,3733.81818144,4259.78787836,3132.12121181,4881.57575709,3334.06060573,4108.33333292,531.636363583,4354.57575714,3622.54545418,4187.15151473,8.2424242416,4777.51515104,3783.27272689,4368.48484805,144.242424228,42.0,42.0,?
2017-08-07 13:37:57.940857,4511.18181773,3878.06060567,4098.03030262,4154.18181777,3855.39393901,552.242424187,4286.06060563,8.2424242416,4240.21212079,407.999999959,4425.66666622,214.303030282,4164.99999958,3733.81818144,4269.57575715,3132.12121181,4894.45454497,3334.06060573,4115.54545413,531.636363583,4357.66666623,3622.54545418,4191.27272685,8.2424242416,4780.60606013,3783.27272689,4375.18181774,144.242424228,42.0,42.0,?
2017-08-07 13:37:57.945628,4516.8484844,3878.06060567,4109.36363595,4154.18181777,3891.96969658,552.242424187,4280.39393897,8.2424242416,4236.09090867,407.999999959,4420.51515107,214.303030282,4170.15151473,3733.81818144,4263.39393897,3132.12121181,4887.24242375,3334.06060573,4127.39393898,531.636363583,4357.66666623,3622.54545418,4190.75757534,8.2424242416,4779.06060558,3783.27272689,4390.6363632,144.242424228,42.0,42.0,?
2017-08-07 13:37:57.954628,4512.72727228,3878.06060567,4112.45454504,4154.18181777,3912.57575718,552.242424187,4269.57575715,8.2424242416,4230.93939352,407.999999959,4415.36363592,214.303030282,4158.30302989,3733.81818144,4256.69696927,3132.12121181,4882.60606012,3334.06060573,4115.03030262,531.636363583,4351.99999956,3622.54545418,4180.45454504,8.2424242416,4776.48484801,3783.27272689,4389.60606017,144.242424228,42.0,42.0,?
2017-08-07 13:37:57.960477,4509.12121167,3878.06060567,4112.96969656,4154.18181777,3905.87878749,552.242424187,4269.06060563,8.2424242416,4237.63636321,407.999999959,4422.06060562,214.303030282,4157.27272686,3733.81818144,4266.99999957,3132.12121181,4889.30302981,3334.06060573,4096.99999959,531.636363583,4343.75757532,3622.54545418,4169.63636322,8.2424242416,4772.8787874,3783.27272689,4383.9393935,144.242424228,42.0,42.0,?
2017-08-07 13:37:57.969616,4517.87878743,3878.06060567,4123.78787838,4154.18181777,3918.24242385,552.242424187,4271.63636321,8.2424242416,4241.24242382,407.999999959,4422.57575713,214.303030282,4163.45454504,3733.81818144,4274.7272723,3132.12121181,4891.36363587,3334.06060573,4112.45454504,531.636363583,4346.3333329,3622.54545418,4184.57575716,8.2424242416,4772.8787874,3783.27272689,4394.75757532,144.242424228,42.0,42.0,?
2017-08-07 13:37:57.978853,4521.48484803,3878.06060567,4127.39393898,4154.18181777,3928.03030264,552.242424187,4269.57575715,8.2424242416,4233.51515109,407.999999959,4411.2424238,214.303030282,4143.87878746,3733.81818144,4259.78787836,3132.12121181,4883.12121163,3334.06060573,4125.84848444,531.636363583,4350.45454502,3622.54545418,4194.87878746,8.2424242416,4772.36363589,3783.27272689,4399.90909047,144.242424228,42.0,42.0,?
2017-08-07 13:37:57.985270,4511.18181773,3878.06060567,4119.66666625,4154.18181777,3919.27272688,552.242424187,4270.60606018,8.2424242416,4230.93939352,407.999999959,4406.09090865,214.303030282,4120.69696928,3733.81818144,4245.36363594,3132.12121181,4879.51515103,3334.06060573,4110.39393898,531.636363583,4339.6363632,3622.54545418,4180.45454504,8.2424242416,4767.21212074,3783.27272689,4390.12121168,144.242424228,42.0,42.0,?
2017-08-07 13:37:57.995620,4510.66666622,3878.06060567,4119.66666625,4154.18181777,3921.84848446,552.242424187,4274.7272723,8.2424242416,4235.57575715,407.999999959,4414.33333289,214.303030282,4128.93939353,3733.81818144,4248.45454503,3132.12121181,4892.3939389,3334.06060573,4113.48484807,531.636363583,4334.48484805,3622.54545418,4180.45454504,8.2424242416,4769.2727268,3783.27272689,4391.15151471,144.242424228,42.0,42.0,?
2017-08-07 13:37:57.998786,4524.06060561,3878.06060567,4125.84848444,4154.18181777,3934.21212082,552.242424187,4275.24242381,8.2424242416,4237.1212117,407.999999959,4424.12121168,214.303030282,4141.30302989,3733.81818144,4253.60606018,3132.12121181,4897.03030254,3334.06060573,4138.72727231,531.636363583,4348.90909047,3622.54545418,4196.93939352,8.2424242416,4778.54545407,3783.27272689,4400.42424198,144.242424228,42.0,42.0,?
2017-08-07 13:37:58.007452,4529.21212076,3878.06060567,4130.48484807,4154.18181777,3941.93939355,552.242424187,4271.12121169,8.2424242416,4237.1212117,407.999999959,4423.09090865,214.303030282,4142.33333292,3733.81818144,4256.18181776,3132.12121181,4884.66666618,3334.06060573,4146.45454504,531.636363583,4357.15151472,3622.54545418,4194.36363594,8.2424242416,4783.69696922,3783.27272689,4404.03030259,144.242424228,42.0,42.0,?
2017-08-07 13:37:58.015675,4525.09090864,3873.93939355,4130.48484807,4154.18181777,3941.93939355,552.242424187,4275.24242381,8.2424242416,4238.66666624,407.999999959,4419.99999956,214.303030282,4145.93939352,3733.81818144,4259.78787836,3132.12121181,4883.12121163,3334.06060573,4140.27272686,531.636363583,4351.99999956,3622.54545418,4185.60606019,8.2424242416,4783.1818177,3783.27272689,4401.45454501,144.242424228,42.0,42.0,?
2017-08-07 13:37:58.023548,4519.42424197,3873.93939355,4125.33333292,4166.54545413,3933.18181779,552.242424187,4268.0303026,8.2424242416,4242.78787836,407.999999959,4423.60606016,214.303030282,4150.57575716,3733.81818144,4262.36363594,3132.12121181,4893.42424193,3334.06060573,4139.24242383,531.636363583,4349.42424199,3622.54545418,4187.15151473,8.2424242416,4778.54545407,3783.27272689,4394.2424238,144.242424228,42.0,42.0,?
2017-08-07 13:37:58.031061,4517.87878743,3873.93939355,4125.33333292,4166.54545413,3925.45454506,552.242424187,4238.66666624,8.2424242416,4248.45454503,407.999999959,4433.39393895,214.303030282,4155.72727231,3733.81818144,4269.57575715,3132.12121181,4892.90909042,3334.06060573,4144.90909049,531.636363583,4353.03030259,3622.54545418,4185.09090867,8.2424242416,4778.03030255,3783.27272689,4391.15151471,140.121212107,42.0,42.0,?
2017-08-07 13:37:58.039920,4522.51515106,3873.93939355,4129.45454504,4166.54545413,3931.63636324,543.999999946,4211.87878746,8.2424242416,4257.21212079,407.999999959,4438.5454541,214.303030282,4170.15151473,3733.81818144,4285.0303026,3132.12121181,4893.42424193,3334.06060573,4153.15151474,531.636363583,4357.66666623,3622.54545418,4189.21212079,8.2424242416,4783.69696922,3783.27272689,4398.87878744,140.121212107,42.0,42.0,?
2017-08-07 13:37:58.046115,4521.48484803,3873.93939355,4127.39393898,4166.54545413,3935.24242385,543.999999946,4201.57575716,103.03030302,4268.54545412,407.999999959,4436.99999956,214.303030282,4175.30302989,3733.81818144,4290.69696927,3132.12121181,4902.18181769,3334.06060573,4158.30302989,531.636363583,4355.60606017,3622.54545418,4200.03030261,8.2424242416,4783.69696922,3783.27272689,4402.48484804,140.121212107,42.0,42.0,?
2017-08-07 13:37:58.056560,4515.30302985,3873.93939355,4123.78787838,4166.54545413,3929.57575718,543.999999946,4200.03030261,103.03030302,4268.54545412,403.878787838,4435.45454501,214.303030282,4159.84848443,3733.81818144,4278.84848442,3132.12121181,4897.03030254,3334.06060573,4158.30302989,531.636363583,4353.03030259,3622.54545418,4201.57575716,8.2424242416,4775.96969649,3783.27272689,4399.39393895,140.121212107,42.0,42.0,?
2017-08-07 13:37:58.062959,4514.27272682,3873.93939355,4125.84848444,4166.54545413,3931.63636324,543.999999946,4203.1212117,103.03030302,4252.06060564,403.878787838,4430.81818138,218.424242402,4147.99999959,3733.81818144,4267.51515109,3132.12121181,4877.96969648,3334.06060573,4160.87878746,531.636363583,4353.54545411,3622.54545418,4195.90909049,8.2424242416,4774.42424195,3783.27272689,4398.87878744,140.121212107,42.0,42.0,?
2017-08-07 13:37:58.072814,4512.21212076,3873.93939355,4126.87878747,4166.54545413,3931.12121173,543.999999946,4203.63636322,103.03030302,4248.96969654,403.878787838,4427.21212077,218.424242402,4152.12121171,3733.81818144,4268.54545412,3132.12121181,4865.60606012,3334.06060573,4154.69696928,531.636363583,4348.39393896,3622.54545418,4191.27272685,8.2424242416,4774.93939346,3783.27272689,4393.72727229,140.121212107,42.0,42.0,?
2017-08-07 13:37:58.079114,4511.69696925,3873.93939355,4126.87878747,4166.54545413,3921.33333294,543.999999946,4202.09090867,103.03030302,4266.99999957,403.878787838,4434.42424198,218.424242402,4159.84848443,3733.81818144,4270.60606018,3132.12121181,4867.15151466,3334.06060573,4149.54545413,531.636363583,4349.9393935,3622.54545418,4187.66666625,8.2424242416,4776.48484801,3783.27272689,4388.57575714,140.121212107,42.0,42.0,?
2017-08-07 13:37:58.089483,4516.8484844,3873.93939355,4129.96969656,4166.54545413,3922.87878749,543.999999946,4207.75757534,103.03030302,4273.69696927,403.878787838,4439.57575713,218.424242402,4157.78787837,3733.81818144,4268.54545412,3132.12121181,4877.96969648,3338.18181785,4179.42424201,531.636363583,4365.90909047,3622.54545418,4203.63636322,8.2424242416,4785.75757528,3783.27272689,4395.78787835,140.121212107,42.0,42.0,?
2017-08-07 13:37:58.095911,4520.454545,3873.93939355,4128.93939353,4166.54545413,3927.51515112,543.999999946,4214.96969655,103.03030302,4264.93939351,403.878787838,4431.84848441,218.424242402,4152.63636322,3733.81818144,4270.09090866,3132.12121181,4882.0909086,3338.18181785,4222.69696927,539.878787825,4382.39393896,3622.54545418,4234.03030261,8.2424242416,4795.54545407,3783.27272689,4408.66666623,140.121212107,42.0,42.0,?
2017-08-07 13:37:58.102734,4522.51515106,3873.93939355,4126.36363595,4166.54545413,3913.0909087,543.999999946,4212.90909049,103.03030302,4262.87878745,403.878787838,4431.33333289,218.424242402,4163.96969655,3733.81818144,4281.93939351,3132.12121181,4888.27272678,3338.18181785,4245.36363594,539.878787825,4391.15151471,3618.42424206,4246.90909048,8.2424242416,4804.30302982,3783.27272689,4414.84848441,140.121212107,42.0,42.0,?
2017-08-07 13:37:58.110946,4525.09090864,3873.93939355,4124.30302989,4166.54545413,3894.03030264,543.999999946,4207.24242382,103.03030302,4268.0303026,403.878787838,4440.60606016,218.424242402,4177.87878746,3733.81818144,4296.36363593,3132.12121181,4906.81818133,3338.18181785,4260.81818139,539.878787825,4396.81818138,3618.42424206,4256.18181776,0.0,4810.99999952,3783.27272689,4417.42424198,140.121212107,42.0,42.0,?
2017-08-07 13:37:58.117949,4525.09090864,3873.93939355,4120.18181777,4166.54545413,3884.75757537,543.999999946,4204.66666625,103.03030302,4261.33333291,403.878787838,4438.03030259,218.424242402,4173.75757534,3733.81818144,4301.51515109,3132.12121181,4917.12121163,3338.18181785,4273.69696927,539.878787825,4397.33333289,3618.42424206,4270.60606018,0.0,4812.03030255,3787.39393902,4418.45454501,140.121212107,42.0,42.0,?
2017-08-07 13:37:58.130147,4519.93939349,3873.93939355,4119.66666625,4166.54545413,3880.63636325,543.999999946,4200.54545413,103.03030302,4254.63636321,403.878787838,4432.87878744,218.424242402,4173.24242383,3733.81818144,4302.54545412,3132.12121181,4914.03030254,3338.18181785,4270.60606018,531.636363583,4392.69696926,3618.42424206,4270.60606018,0.0,4809.45454497,3787.39393902,4412.78787835,140.121212107,42.0,42.0,?
2017-08-07 13:37:58.134231,4521.99999955,3873.93939355,4123.78787838,4166.54545413,3884.24242385,543.999999946,4198.48484806,103.03030302,4260.81818139,403.878787838,4439.06060562,218.424242402,4185.09090867,3733.81818144,4309.75757533,3132.12121181,4919.18181769,3338.18181785,4269.06060563,531.636363583,4393.21212077,3614.30302994,4272.66666624,0.0,4811.51515103,3787.39393902,4410.21212077,140.121212107,42.0,42.0,?
2017-08-07 13:37:58.140038,4528.69696924,3873.93939355,4128.93939353,4166.54545413,3889.90909052,543.999999946,4202.09090867,103.03030302,4266.99999957,403.878787838,4443.18181774,218.424242402,4192.8181814,3733.81818144,4317.99999957,3132.12121181,4930.51515102,3338.18181785,4280.39393897,531.636363583,4399.90909047,3614.30302994,4284.51515109,4.1212121208,4820.27272679,3787.39393902,4415.36363592,140.121212107,42.0,42.0,?
2017-08-07 13:37:58.149318,4528.69696924,3873.93939355,4130.99999959,4166.54545413,3883.72727234,543.999999946,4196.93939352,103.03030302,4269.06060563,403.878787838,4443.18181774,218.424242402,4196.424242,3733.81818144,4319.0303026,3132.12121181,4923.81818133,3338.18181785,4284.51515109,531.636363583,4402.48484804,3614.30302994,4286.57575715,4.1212121208,4822.84848437,3787.39393902,4418.96969653,140.121212107,42.0,42.0,?
2017-08-07 13:37:58.157398,4528.18181773,3873.93939355,4130.99999959,4166.54545413,3880.12121173,543.999999946,4179.93939352,103.03030302,4274.7272723,403.878787838,4449.36363592,218.424242402,4197.45454503,3733.81818144,4312.84848442,3132.12121181,4904.24242375,3338.18181785,4274.7272723,531.636363583,4401.45454501,3614.30302994,4276.27272685,4.1212121208,4818.21212073,3787.39393902,4416.39393895,140.121212107,42.0,42.0,?
2017-08-07 13:37:58.165686,4527.66666621,3873.93939355,4128.93939353,4166.54545413,3883.21212082,543.999999946,4165.5151511,103.03030302,4281.424242,403.878787838,4450.90909046,218.424242402,4193.33333291,3733.81818144,4305.63636321,3132.12121181,4898.57575709,3338.18181785,4263.90909048,531.636363583,4398.36363592,3614.30302994,4268.54545412,4.1212121208,4815.63636315,3787.39393902,4414.84848441,140.121212107,42.0,42.0,?
2017-08-07 13:37:58.171393,4523.54545409,3873.93939355,4129.45454504,4166.54545413,3881.66666628,543.999999946,4168.60606019,103.03030302,4282.45454503,403.878787838,4447.81818137,218.424242402,4191.78787837,3733.81818144,4303.57575715,3132.12121181,4904.24242375,3338.18181785,4262.87878745,531.636363583,4395.78787835,3614.30302994,4267.51515109,4.1212121208,4815.12121164,3787.39393902,4412.78787835,140.121212107,42.0,42.0,?
2017-08-07 13:37:58.180925,4520.96969652,3873.93939355,4129.96969656,4166.54545413,3875.99999961,543.999999946,4170.66666625,103.03030302,4283.99999957,403.878787838,4453.99999955,218.424242402,4189.21212079,3733.81818144,4303.06060563,3132.12121181,4900.63636315,3338.18181785,4262.87878745,531.636363583,4395.78787835,3614.30302994,4269.06060563,4.1212121208,4811.51515103,3787.39393902,4406.60606017,140.121212107,42.0,42.0,?
2017-08-07 13:37:58.186919,4521.99999955,3873.93939355,4126.87878747,4166.54545413,3874.96969658,543.999999946,4163.96969655,103.03030302,4285.54545412,403.878787838,4458.12121168,218.424242402,4189.21212079,3733.81818144,4304.60606018,3132.12121181,4898.57575709,3338.18181785,4261.33333291,531.636363583,4398.87878744,3614.30302994,4269.06060563,4.1212121208,4811.51515103,3787.39393902,4408.15151471,140.121212107,42.0,42.0,?
2017-08-07 13:37:58.197217,4526.63636318,3873.93939355,4126.36363595,4166.54545413,3877.54545416,543.999999946,4179.42424201,103.03030302,4285.0303026,403.878787838,4453.48484804,218.424242402,4203.63636322,3733.81818144,4310.78787836,3132.12121181,4910.93939345,3338.18181785,4269.57575715,531.636363583,4403.51515107,3614.30302994,4274.21212078,4.1212121208,4820.78787831,3787.39393902,4415.36363592,140.121212107,42.0,42.0,?
2017-08-07 13:37:58.203531,4529.21212076,3873.93939355,4126.36363595,4166.54545413,3879.0909087,543.999999946,4209.8181814,103.03030302,4281.93939351,403.878787838,4453.48484804,218.424242402,4219.60606018,3733.81818144,4324.18181775,3132.12121181,4921.24242375,3338.18181785,4277.30302988,531.636363583,4404.54545411,3614.30302994,4282.96969654,4.1212121208,4823.36363588,3787.39393902,4416.90909047,140.121212107,42.0,42.0,?
2017-08-07 13:37:58.213054,4528.69696924,3873.93939355,4127.39393898,4166.54545413,3879.0909087,543.999999946,4217.54545412,103.03030302,4281.424242,403.878787838,4460.69696925,218.424242402,4228.87878746,3733.81818144,4340.15151472,3132.12121181,4920.72727224,3338.18181785,4276.27272685,531.636363583,4404.03030259,3614.30302994,4285.0303026,4.1212121208,4820.27272679,3787.39393902,4415.36363592,140.121212107,42.0,42.0,?
2017-08-07 13:37:58.218632,4527.66666621,3873.93939355,4126.87878747,4166.54545413,3875.4848481,543.999999946,4210.33333291,103.03030302,4286.57575715,403.878787838,4468.42424198,218.424242402,4228.36363594,3733.81818144,4338.09090866,3132.12121181,4919.6969692,3338.18181785,4273.18181775,531.636363583,4405.57575714,3614.30302994,4282.45454503,4.1212121208,4823.36363588,3787.39393902,4415.36363592,140.121212107,42.0,42.0,?
2017-08-07 13:37:58.226391,4525.60606015,3873.93939355,4128.42424201,4166.54545413,3873.42424204,543.999999946,4211.36363594,103.03030302,4293.78787836,403.878787838,4474.09090864,218.424242402,4211.87878746,3733.81818144,4320.06060563,3132.12121181,4919.18181769,3338.18181785,4270.09090866,531.636363583,4404.03030259,3614.30302994,4279.87878745,4.1212121208,4823.36363588,3787.39393902,4415.87878744,140.121212107,42.0,42.0,?
2017-08-07 13:37:58.235610,4526.63636318,3873.93939355,4136.66666625,4166.54545413,3878.06060567,543.999999946,4210.84848443,103.03030302,4295.84848442,403.878787838,4470.48484804,218.424242402,4199.5151511,3733.81818144,4312.84848442,3132.12121181,4913.51515102,3338.18181785,4266.48484806,531.636363583,4401.45454501,3614.30302994,4279.36363594,4.1212121208,4820.27272679,3787.39393902,4414.84848441,140.121212107,42.0,42.0,?
2017-08-07 13:37:58.242249,4529.21212076,3873.93939355,4140.78787837,4166.54545413,3880.12121173,543.999999946,4205.69696928,103.03030302,4292.75757533,403.878787838,4464.30302986,218.424242402,4208.27272685,3733.81818144,4319.54545411,3132.12121181,4906.81818133,3338.18181785,4269.06060563,531.636363583,4402.48484804,3614.30302994,4279.87878745,4.1212121208,4822.33333285,3787.39393902,4415.87878744,140.121212107,42.0,42.0,?
2017-08-07 13:37:58.249674,4528.18181773,3873.93939355,4138.2121208,4166.54545413,3881.66666628,543.999999946,4206.21212079,103.03030302,4287.09090866,403.878787838,4465.33333289,218.424242402,4209.8181814,3733.81818144,4320.57575714,3132.12121181,4907.84848436,3338.18181785,4272.15151472,531.636363583,4401.45454501,3614.30302994,4275.75757533,4.1212121208,4823.8787874,3787.39393902,4416.90909047,140.121212107,42.0,42.0,?
2017-08-07 13:37:58.257510,4527.66666621,3873.93939355,4137.69696928,4166.54545413,3890.42424204,543.999999946,4208.78787837,103.03030302,4282.45454503,403.878787838,4459.15151471,218.424242402,4197.45454503,3733.81818144,4317.99999957,3132.12121181,4919.18181769,3338.18181785,4271.12121169,531.636363583,4399.90909047,3614.30302994,4271.12121169,4.1212121208,4821.30302982,3787.39393902,4416.90909047,140.121212107,42.0,42.0,?
2017-08-07 13:37:58.265154,4529.72727227,3873.93939355,4144.90909049,4166.54545413,3900.72727234,543.999999946,4213.424242,103.03030302,4288.63636321,403.878787838,4457.60606016,218.424242402,4207.75757534,3733.81818144,4327.27272684,3132.12121181,4930.51515102,3338.18181785,4271.12121169,531.636363583,4401.96969653,3614.30302994,4278.84848442,4.1212121208,4820.27272679,3787.39393902,4421.03030259,140.121212107,42.0,42.0,?
2017-08-07 13:37:58.272671,4531.78787833,3873.93939355,4149.03030262,4166.54545413,3904.84848446,543.999999946,4216.51515109,103.03030302,4299.45454502,403.878787838,4468.42424198,218.424242402,4222.69696927,3733.81818144,4336.0303026,3132.12121181,4928.45454496,3338.18181785,4268.54545412,531.636363583,4405.57575714,3614.30302994,4285.0303026,4.1212121208,4819.75757528,3787.39393902,4425.66666622,140.121212107,42.0,42.0,?
2017-08-07 13:37:58.284164,4531.78787833,3873.93939355,4145.42424201,4166.54545413,3904.84848446,543.999999946,4212.39393897,103.03030302,4295.84848442,403.878787838,4459.66666622,218.424242402,4209.30302988,3733.81818144,4330.36363593,3132.12121181,4917.12121163,3338.18181785,4268.0303026,531.636363583,4402.48484804,3614.30302994,4282.45454503,4.1212121208,4815.63636315,3787.39393902,4423.60606016,140.121212107,42.0,42.0,?
2017-08-07 13:37:58.290208,4531.27272682,3873.93939355,4141.30302989,4166.54545413,3907.93939355,543.999999946,4208.27272685,103.03030302,4283.99999957,403.878787838,4443.69696925,218.424242402,4186.63636322,3733.81818144,4319.0303026,3132.12121181,4907.33333284,3338.18181785,4265.96969654,531.636363583,4398.87878744,3614.30302994,4278.33333291,4.1212121208,4810.484848,3787.39393902,4422.06060562,140.121212107,42.0,42.0,?
2017-08-07 13:37:58.296460,4527.66666621,3873.93939355,4140.78787837,4166.54545413,3909.48484809,543.999999946,4209.8181814,103.03030302,4286.06060563,403.878787838,4447.81818137,218.424242402,4184.57575716,3733.81818144,4317.48484805,3132.12121181,4908.87878739,3338.18181785,4254.1212117,531.636363583,4395.78787835,3614.30302994,4271.12121169,4.1212121208,4805.84848437,3787.39393902,4422.57575713,140.121212107,42.0,42.0,?
2017-08-07 13:37:58.304021,4525.09090864,3873.93939355,4140.78787837,4166.54545413,3909.48484809,543.999999946,4212.39393897,103.03030302,4296.36363593,403.878787838,4449.36363592,218.424242402,4195.90909049,3733.81818144,4316.45454502,3132.12121181,4917.63636314,3338.18181785,4249.48484806,531.636363583,4393.72727229,3614.30302994,4266.48484806,4.1212121208,4802.24242376,3787.39393902,4417.9393935,140.121212107,42.0,42.0,?
2017-08-07 13:37:58.312783,4527.1515147,3873.93939355,4140.78787837,4166.54545413,3912.57575718,543.999999946,4213.93939352,103.03030302,4298.93939351,403.878787838,4450.90909046,218.424242402,4203.63636322,3733.81818144,4316.96969654,3132.12121181,4918.66666617,3338.18181785,4253.09090867,531.636363583,4397.33333289,3614.30302994,4272.66666624,4.1212121208,4805.33333285,3787.39393902,4419.48484804,140.121212107,42.0,42.0,?
2017-08-07 13:37:58.320010,4529.72727227,3873.93939355,4142.84848443,4166.54545413,3918.75757537,543.999999946,4221.66666624,103.03030302,4297.39393896,403.878787838,4460.69696925,218.424242402,4205.18181776,3733.81818144,4328.81818139,3132.12121181,4909.90909042,3338.18181785,4242.27272685,531.636363583,4398.87878744,3614.30302994,4273.69696927,4.1212121208,4808.42424194,3787.39393902,4427.72727228,140.121212107,42.0,42.0,?
2017-08-07 13:37:58.329814,4532.81818136,3873.93939355,4142.33333292,4166.54545413,3917.72727234,543.999999946,4228.36363594,103.03030302,4295.3333329,403.878787838,4461.72727228,218.424242402,4206.72727231,3733.81818144,4331.90909048,3132.12121181,4909.90909042,3338.18181785,4237.1212117,531.636363583,4395.78787835,3614.30302994,4269.06060563,4.1212121208,4806.36363588,3787.39393902,4427.21212077,140.121212107,42.0,42.0,?
2017-08-07 13:37:58.338120,4532.81818136,3873.93939355,4140.78787837,4166.54545413,3912.06060567,543.999999946,4229.90909049,103.03030302,4295.3333329,403.878787838,4459.66666622,218.424242402,4214.45454503,3733.81818144,4325.72727229,3132.12121181,4916.60606011,3338.18181785,4252.57575715,531.636363583,4397.33333289,3614.30302994,4271.63636321,4.1212121208,4802.75757528,3787.39393902,4424.12121168,140.121212107,42.0,42.0,?
2017-08-07 13:37:58.343320,4531.27272682,3873.93939355,4139.75757534,4166.54545413,3911.03030264,543.999999946,4229.90909049,103.03030302,4294.81818139,403.878787838,4460.69696925,218.424242402,4214.45454503,3733.81818144,4329.84848442,3132.12121181,4916.60606011,3338.18181785,4252.57575715,531.636363583,4400.42424198,3614.30302994,4272.15151472,4.1212121208,4803.27272679,3787.39393902,4424.63636319,140.121212107,42.0,42.0,?
2017-08-07 13:37:58.350932,4532.30302985,3873.93939355,4138.2121208,4166.54545413,3912.57575718,543.999999946,4227.33333291,103.03030302,4296.87878745,403.878787838,4452.45454501,218.424242402,4210.33333291,3733.81818144,4336.0303026,3132.12121181,4924.84848436,3338.18181785,4234.03030261,531.636363583,4396.30302986,3614.30302994,4260.30302988,4.1212121208,4806.8787874,3787.39393902,4424.12121168,140.121212107,42.0,42.0,?
2017-08-07 13:37:58.359675,4535.39393894,3873.93939355,4140.78787837,4166.54545413,3914.12121173,543.999999946,4220.63636321,103.03030302,4300.48484805,403.878787838,4455.03030258,218.424242402,4214.45454503,3733.81818144,4334.48484805,3132.12121181,4943.90909041,3338.18181785,4234.54545412,531.636363583,4394.75757532,3614.30302994,4257.21212079,4.1212121208,4810.99999952,3787.39393902,4428.75757531,140.121212107,42.0,42.0,?
2017-08-07 13:37:58.367494,4533.8484844,3873.93939355,4140.78787837,4166.54545413,3907.93939355,543.999999946,4235.06060564,103.03030302,4302.0303026,403.878787838,4464.30302986,218.424242402,4218.06060564,3733.81818144,4332.93939351,3132.12121181,4950.0909086,3338.18181785,4241.24242382,531.636363583,4398.36363592,3614.30302994,4260.30302988,4.1212121208,4813.57575709,3787.39393902,4432.87878744,140.121212107,42.0,42.0,?
2017-08-07 13:37:58.374786,4529.72727227,3873.93939355,4131.5151511,4166.54545413,3896.60606022,543.999999946,4281.424242,103.03030302,4299.45454502,403.878787838,4453.48484804,218.424242402,4214.96969655,3733.81818144,4332.42424199,3132.12121181,4939.27272678,3338.18181785,4224.24242382,531.636363583,4392.18181774,3614.30302994,4244.84848442,4.1212121208,4809.45454497,3787.39393902,4424.63636319,140.121212107,42.0,42.0,?
2017-08-07 13:37:58.382245,4527.1515147,3873.93939355,4121.72727232,4166.54545413,3887.33333294,543.999999946,4333.96969654,103.03030302,4291.7272723,403.878787838,4450.39393895,218.424242402,4206.72727231,3733.81818144,4327.78787836,3132.12121181,4926.90909042,3338.18181785,4203.1212117,531.636363583,4379.30302987,3614.30302994,4222.69696927,4.1212121208,4798.63636316,3787.39393902,4412.78787835,140.121212107,42.0,42.0,?
2017-08-07 13:37:58.390369,4520.96969652,3873.93939355,4116.57575716,4166.54545413,3879.0909087,543.999999946,4370.54545411,103.03030302,4284.51515109,403.878787838,4462.75757531,218.424242402,4194.36363594,3733.81818144,4315.93939351,3132.12121181,4915.06060557,3338.18181785,4188.69696928,531.636363583,4368.48484805,3614.30302994,4210.33333291,4.1212121208,4786.78787831,3787.39393902,4404.54545411,140.121212107,42.0,42.0,?
2017-08-07 13:37:58.397697,4518.90909046,3873.93939355,4112.45454504,4166.54545413,3876.51515113,543.999999946,4388.57575714,103.03030302,4282.96969654,403.878787838,4456.06060561,218.424242402,4179.93939352,3733.81818144,4301.51515109,3132.12121181,4907.84848436,3338.18181785,4172.72727231,531.636363583,4363.84848441,3614.30302994,4202.60606019,4.1212121208,4780.09090861,3787.39393902,4400.9393935,140.121212107,42.0,42.0,?
2017-08-07 13:37:58.407273,4526.12121167,3873.93939355,4117.60606019,4166.54545413,3881.66666628,543.999999946,4390.12121168,103.03030302,4284.51515109,403.878787838,4445.75757531,218.424242402,4177.87878746,3733.81818144,4304.60606018,3132.12121181,4918.66666617,3338.18181785,4171.18181776,531.636363583,4364.87878744,3614.30302994,4200.54545413,4.1212121208,4783.69696922,3787.39393902,4404.03030259,140.121212107,42.0,42.0,?
2017-08-07 13:37:58.414443,4530.7575753,3873.93939355,4124.81818141,4166.54545413,3880.63636325,543.999999946,4392.69696926,103.03030302,4281.93939351,403.878787838,4450.39393895,218.424242402,4189.72727231,3733.81818144,4318.51515108,3132.12121181,4936.6969692,3338.18181785,4185.09090867,531.636363583,4368.99999956,3614.30302994,4206.21212079,4.1212121208,4789.36363588,3787.39393902,4409.18181774,140.121212107,42.0,42.0,?
2017-08-07 13:37:58.422190,4531.27272682,3873.93939355,4123.27272686,4166.54545413,3873.42424204,543.999999946,4402.99999956,103.03030302,4274.7272723,403.878787838,4450.39393895,218.424242402,4202.09090867,3733.81818144,4314.39393896,3132.12121181,4944.42424193,3338.18181785,4189.21212079,531.636363583,4370.54545411,3614.30302994,4206.72727231,4.1212121208,4790.39393891,3787.39393902,4412.27272683,140.121212107,42.0,42.0,?
2017-08-07 13:37:58.429490,4535.90909046,3873.93939355,4125.33333292,4166.54545413,3877.03030264,543.999999946,4415.36363592,103.03030302,4272.15151472,403.878787838,4444.72727228,218.424242402,4209.8181814,3733.81818144,4310.27272684,3132.12121181,4948.03030254,3338.18181785,4186.1212117,531.636363583,4368.99999956,3614.30302994,4206.72727231,4.1212121208,4791.93939346,3787.39393902,4414.84848441,140.121212107,42.0,42.0,?
2017-08-07 13:37:58.437064,4545.18181773,3873.93939355,4127.9090905,4166.54545413,3877.03030264,543.999999946,4463.78787834,103.03030302,4269.06060563,403.878787838,4440.60606016,218.424242402,4214.96969655,3733.81818144,4323.15151472,3132.12121181,4954.72727223,3338.18181785,4187.15151473,531.636363583,4371.06060562,3614.30302994,4206.72727231,4.1212121208,4794.51515104,3787.39393902,4416.90909047,140.121212107,42.0,42.0,?
2017-08-07 13:37:58.444600,4544.1515147,3873.93939355,4117.60606019,4166.54545413,3864.15151477,543.999999946,4551.87878742,103.03030302,4256.69696927,403.878787838,4433.39393895,218.424242402,4208.27272685,3733.81818144,4317.48484805,3132.12121181,4953.18181769,3338.18181785,4175.30302989,531.636363583,4363.3333329,3614.30302994,4190.75757534,4.1212121208,4782.15151467,3787.39393902,4412.27272683,140.121212107,42.0,42.0,?
2017-08-07 13:37:58.452601,4531.27272682,3873.93939355,4107.30302989,4166.54545413,3851.7878784,543.999999946,4618.84848439,103.03030302,4248.45454503,403.878787838,4426.69696925,218.424242402,4190.24242382,3733.81818144,4290.69696927,3132.12121181,4941.33333284,3338.18181785,4153.66666625,531.636363583,4345.81818138,3614.30302994,4170.15151473,4.1212121208,4763.09090861,3787.39393902,4401.96969653,140.121212107,42.0,42.0,?
2017-08-07 13:37:58.461693,4524.57575712,3873.93939355,4105.24242383,4166.54545413,3843.54545416,543.999999946,4642.54545408,103.03030302,4247.93939351,403.878787838,4425.66666622,218.424242402,4175.30302989,3733.81818144,4281.424242,3132.12121181,4934.63636314,3338.18181785,4144.39393898,531.636363583,4337.06060563,3614.30302994,4162.93939352,4.1212121208,4758.45454498,3787.39393902,4391.15151471,140.121212107,42.0,42.0,?
2017-08-07 13:37:58.469240,4527.66666621,3873.93939355,4101.12121171,4166.54545413,3838.39393901,543.999999946,4648.72727226,103.03030302,4239.18181776,403.878787838,4421.03030259,218.424242402,4163.96969655,3733.81818144,4283.48484806,3132.12121181,4940.30302981,3338.18181785,4141.8181814,531.636363583,4336.0303026,3614.30302994,4160.36363595,4.1212121208,4759.99999952,3787.39393902,4388.06060562,140.121212107,42.0,42.0,?
2017-08-07 13:37:58.475604,4527.66666621,3873.93939355,4098.54545414,4166.54545413,3833.75757537,543.999999946,4659.54545408,103.03030302,4231.45454503,403.878787838,4417.9393935,218.424242402,4154.18181777,3733.81818144,4272.15151472,3132.12121181,4951.12121163,3338.18181785,4140.78787837,531.636363583,4335.51515108,3614.30302994,4155.2121208,4.1212121208,4758.96969649,3787.39393902,4389.60606017,140.121212107,42.0,42.0,?
2017-08-07 13:37:58.485519,4525.60606015,3873.93939355,4104.2121208,4166.54545413,3833.24242386,543.999999946,4681.69696923,103.03030302,4242.27272685,403.878787838,4420.51515107,218.424242402,4153.15151474,3733.81818144,4261.84848442,3132.12121181,4948.54545405,3338.18181785,4142.33333292,531.636363583,4337.57575714,3614.30302994,4150.57575716,4.1212121208,4758.96969649,3787.39393902,4390.12121168,140.121212107,42.0,42.0,?
2017-08-07 13:37:58.491526,4531.78787833,3873.93939355,4108.33333292,4166.54545413,3835.81818143,543.999999946,4699.72727226,103.03030302,4251.54545412,403.878787838,4417.9393935,218.424242402,4151.09090868,3733.81818144,4268.54545412,3132.12121181,4940.81818132,3338.18181785,4144.39393898,531.636363583,4339.12121169,3614.30302994,4147.99999959,4.1212121208,4760.51515104,3787.39393902,4394.2424238,140.121212107,42.0,42.0,?
2017-08-07 13:37:58.499542,4539.51515106,3873.93939355,4112.45454504,4166.54545413,3837.87878749,543.999999946,4697.6666662,103.03030302,4249.99999958,403.878787838,4418.45454501,218.424242402,4158.8181814,3733.81818144,4283.48484806,3132.12121181,4952.66666617,3338.18181785,4152.12121171,531.636363583,4341.18181775,3614.30302994,4150.06060565,4.1212121208,4766.69696922,3787.39393902,4401.45454501,140.121212107,42.0,42.0,?
2017-08-07 13:37:58.507964,4538.99999955,3873.93939355,4117.09090868,4166.54545413,3840.45454507,543.999999946,4697.15151468,103.03030302,4253.60606018,403.878787838,4429.78787834,218.424242402,4173.75757534,3733.81818144,4289.15151472,3132.12121181,4970.6969692,3338.18181785,4159.84848443,531.636363583,4344.27272684,3614.30302994,4155.2121208,4.1212121208,4772.36363589,3787.39393902,4402.99999956,140.121212107,42.0,42.0,?
2017-08-07 13:37:58.515335,4536.93939349,3873.93939355,4115.03030262,4166.54545413,3844.06060568,543.999999946,4717.75757529,103.03030302,4255.66666624,403.878787838,4433.39393895,218.424242402,4173.24242383,3733.81818144,4280.90909048,3132.12121181,4973.27272678,3338.18181785,4151.60606019,531.636363583,4345.30302987,3614.30302994,4153.15151474,4.1212121208,4769.2727268,3787.39393902,4400.9393935,140.121212107,42.0,42.0,?
2017-08-07 13:37:58.522545,4537.96969652,3873.93939355,4112.45454504,4166.54545413,3841.99999962,543.999999946,4742.99999953,103.03030302,4243.81818139,403.878787838,4422.06060562,218.424242402,4168.09090867,3733.81818144,4276.78787836,3132.12121181,4967.09090859,3338.18181785,4142.33333292,531.636363583,4343.75757532,3614.30302994,4151.09090868,4.1212121208,4766.69696922,3787.39393902,4399.39393895,140.121212107,42.0,42.0,?
2017-08-07 13:37:58.532424,4541.06060561,3873.93939355,4114.5151511,4158.30302989,3836.84848446,543.999999946,4753.30302983,103.03030302,4237.63636321,403.878787838,4416.39393895,218.424242402,4172.72727231,3733.81818144,4285.0303026,3132.12121181,4968.12121162,3338.18181785,4150.57575716,531.636363583,4343.24242381,3614.30302994,4158.8181814,4.1212121208,4770.81818134,3787.39393902,4399.90909047,140.121212107,42.0,42.0,?
2017-08-07 13:37:58.539740,4542.60606015,3873.93939355,4113.48484807,4158.30302989,3835.30302992,543.999999946,4752.2727268,103.03030302,4249.48484806,403.878787838,4426.69696925,218.424242402,4176.84848443,3733.81818144,4290.69696927,3132.12121181,4975.84848435,3338.18181785,4158.30302989,531.636363583,4342.72727229,3614.30302994,4163.96969655,4.1212121208,4773.90909043,3787.39393902,4399.39393895,135.999999986,42.0,42.0,?
2017-08-07 13:37:58.547310,4537.96969652,3873.93939355,4108.84848444,4158.30302989,3832.72727234,543.999999946,4753.30302983,103.03030302,4256.69696927,403.878787838,4434.42424198,218.424242402,4172.21212079,3733.81818144,4285.54545412,3132.12121181,4971.72727223,3338.18181785,4149.03030262,531.636363583,4339.6363632,3614.30302994,4157.27272686,4.1212121208,4769.2727268,3787.39393902,4399.39393895,135.999999986,42.0,42.0,?
2017-08-07 13:37:58.553488,4539.51515106,3873.93939355,4113.48484807,4158.30302989,3838.39393901,543.999999946,4751.24242377,156.60606059,4253.09090867,403.878787838,4431.33333289,218.424242402,4163.96969655,3733.81818144,4279.36363594,3132.12121181,4959.36363587,3338.18181785,4144.39393898,531.636363583,4339.6363632,3614.30302994,4154.69696928,4.1212121208,4767.21212074,3787.39393902,4402.99999956,135.999999986,42.0,42.0,?
2017-08-07 13:37:58.561572,4550.84848439,3873.93939355,4124.81818141,4158.30302989,3851.7878784,543.999999946,4739.90909044,156.60606059,4252.57575715,399.757575718,4426.69696925,218.424242402,4160.87878746,3733.81818144,4285.0303026,3132.12121181,4964.51515102,3338.18181785,4155.72727231,531.636363583,4349.9393935,3614.30302994,4170.15151473,4.1212121208,4773.39393892,3787.39393902,4411.75757532,135.999999986,42.0,42.0,?
2017-08-07 13:37:58.571525,4552.90909045,3873.93939355,4127.9090905,4158.30302989,3857.45454507,543.999999946,4731.15151468,156.60606059,4253.60606018,399.757575718,4423.60606016,226.666666644,4164.48484807,3733.81818144,4287.09090866,3132.12121181,4980.48484799,3338.18181785,4162.93939352,531.636363583,4356.12121169,3614.30302994,4180.96969655,4.1212121208,4778.03030255,3787.39393902,4410.72727229,135.999999986,42.0,42.0,?
2017-08-07 13:37:58.578017,4547.24242379,3873.93939355,4125.84848444,4158.30302989,3858.4848481,543.999999946,4729.09090862,156.60606059,4249.48484806,399.757575718,4425.15151471,226.666666644,4159.84848443,3733.81818144,4272.66666624,3132.12121181,4980.48484799,3338.18181785,4155.2121208,531.636363583,4353.54545411,3614.30302994,4173.75757534,4.1212121208,4775.45454498,3787.39393902,4404.54545411,135.999999986,42.0,42.0,?
2017-08-07 13:37:58.586078,4557.03030257,3873.93939355,4128.93939353,4158.30302989,3862.60606022,543.999999946,4730.63636316,156.60606059,4261.84848442,399.757575718,4428.75757531,226.666666644,4153.15151474,3733.81818144,4278.33333291,3136.24242393,4984.60606011,3334.06060573,4158.30302989,531.636363583,4362.30302987,3614.30302994,4177.36363595,4.1212121208,4780.09090861,3787.39393902,4414.84848441,135.999999986,42.0,42.0,?
2017-08-07 13:37:58.595558,4557.03030257,3873.93939355,4128.93939353,4158.30302989,3862.60606022,543.999999946,4730.63636316,156.60606059,4261.84848442,399.757575718,4428.75757531,226.666666644,4153.15151474,3733.81818144,4278.33333291,3136.24242393,4984.60606011,3334.06060573,4158.30302989,531.636363583,4362.30302987,3614.30302994,4177.36363595,4.1212121208,4780.09090861,3787.39393902,4414.84848441,135.999999986,42.0,42.0,?
2017-08-07 13:37:58.601145,4553.93939348,3873.93939355,4126.87878747,4158.30302989,3862.0909087,543.999999946,4733.21212074,156.60606059,4259.27272685,399.757575718,4421.5454541,226.666666644,4160.36363595,3733.81818144,4283.48484806,3136.24242393,4991.81818132,3334.06060573,4155.2121208,539.878787825,4359.21212078,3614.30302994,4175.8181814,4.1212121208,4777.51515104,3787.39393902,4407.12121168,135.999999986,42.0,42.0,?
2017-08-07 13:37:58.610323,4551.36363591,3873.93939355,4124.81818141,4158.30302989,3864.15151477,543.999999946,4731.66666619,156.60606059,4252.06060564,399.757575718,4425.66666622,226.666666644,4159.84848443,3733.81818144,4277.81818139,3136.24242393,4978.93939344,3334.06060573,4144.39393898,539.878787825,4348.39393896,3622.54545418,4172.72727231,4.1212121208,4770.81818134,3787.39393902,4399.90909047,135.999999986,42.0,42.0,?
2017-08-07 13:37:58.617469,4554.454545,3873.93939355,4125.33333292,4158.30302989,3865.69696931,543.999999946,4733.72727225,156.60606059,4252.06060564,399.757575718,4430.81818138,226.666666644,4164.99999958,3733.81818144,4283.48484806,3136.24242393,4975.33333284,3334.06060573,4149.03030262,539.878787825,4353.03030259,3622.54545418,4173.75757534,4.1212121208,4773.90909043,3787.39393902,4405.06060562,135.999999986,42.0,42.0,?
2017-08-07 13:37:58.626423,4554.96969651,3873.93939355,4125.84848444,4158.30302989,3866.72727234,543.999999946,4732.18181771,156.60606059,4253.60606018,399.757575718,4425.66666622,226.666666644,4172.21212079,3733.81818144,4290.69696927,3136.24242393,4985.12121162,3334.06060573,4152.12121171,539.878787825,4360.24242381,3622.54545418,4175.8181814,4.1212121208,4777.51515104,3787.39393902,4407.6363632,135.999999986,42.0,42.0,?
2017-08-07 13:37:58.633385,4553.42424197,3873.93939355,4127.39393898,4158.30302989,3869.81818143,543.999999946,4724.9696965,156.60606059,4252.57575715,399.757575718,4426.69696925,226.666666644,4172.21212079,3733.81818144,4286.57575715,3136.24242393,4982.54545405,3334.06060573,4141.30302989,531.636363583,4355.60606017,3622.54545418,4173.24242383,4.1212121208,4776.99999952,3787.39393902,4402.99999956,135.999999986,42.0,42.0,?
2017-08-07 13:37:58.641885,4550.84848439,3873.93939355,4127.39393898,4158.30302989,3868.27272689,543.999999946,4720.33333286,156.60606059,4253.60606018,399.757575718,4426.69696925,226.666666644,4173.24242383,3733.81818144,4281.424242,3136.24242393,4975.84848435,3334.06060573,4134.09090868,531.636363583,4348.90909047,3614.30302994,4159.84848443,4.1212121208,4771.84848437,3787.39393902,4401.96969653,135.999999986,42.0,42.0,?
2017-08-07 13:37:58.647511,4545.69696924,3873.93939355,4125.84848444,4158.30302989,3867.24242386,543.999999946,4714.15151468,156.60606059,4254.1212117,399.757575718,4417.9393935,226.666666644,4168.09090867,3733.81818144,4281.424242,3136.24242393,4975.84848435,3334.06060573,4135.63636322,531.636363583,4347.36363593,3614.30302994,4144.90909049,4.1212121208,4767.21212074,3787.39393902,4398.36363592,135.999999986,42.0,42.0,?
2017-08-07 13:37:58.661831,4544.66666621,3873.93939355,4127.9090905,4158.30302989,3872.39393901,543.999999946,4703.84848438,156.60606059,4251.03030261,399.757575718,4415.36363592,226.666666644,4157.78787837,3733.81818144,4278.33333291,3136.24242393,4966.06060556,3334.06060573,4133.06060565,531.636363583,4346.84848441,3614.30302994,4140.78787837,4.1212121208,4767.21212074,3787.39393902,4391.15151471,135.999999986,42.0,42.0,?
2017-08-07 13:37:58.665254,4545.18181773,3873.93939355,4134.09090868,4158.30302989,3877.54545416,543.999999946,4695.60606014,156.60606059,4250.51515109,399.757575718,4420.51515107,226.666666644,4154.69696928,3733.81818144,4271.12121169,3136.24242393,4962.45454496,3334.06060573,4129.96969656,531.636363583,4344.78787835,3614.30302994,4140.78787837,4.1212121208,4763.60606013,3787.39393902,4394.2424238,135.999999986,42.0,42.0,?
2017-08-07 13:37:58.674983,4543.63636318,3873.93939355,4138.72727231,4158.30302989,3877.54545416,543.999999946,4685.81818135,156.60606059,4252.06060564,399.757575718,4421.5454541,226.666666644,4154.69696928,3733.81818144,4271.63636321,3136.24242393,4975.33333284,3334.06060573,4133.57575716,531.636363583,4344.78787835,3614.30302994,4142.33333292,4.1212121208,4758.96969649,3787.39393902,4401.45454501,135.999999986,42.0,42.0,?
2017-08-07 13:37:58.683248,4544.1515147,3873.93939355,4138.2121208,4158.30302989,3877.54545416,543.999999946,4674.48484802,156.60606059,4255.15151473,399.757575718,4419.99999956,226.666666644,4154.18181777,3733.81818144,4276.27272685,3136.24242393,4971.21212072,3334.06060573,4140.78787837,531.636363583,4348.39393896,3614.30302994,4150.06060565,4.1212121208,4765.66666619,3787.39393902,4398.87878744,135.999999986,42.0,42.0,?
2017-08-07 13:37:58.690807,4550.84848439,3873.93939355,4138.2121208,4158.30302989,3881.66666628,543.999999946,4671.90909044,156.60606059,4256.18181776,399.757575718,4422.06060562,226.666666644,4158.30302989,3733.81818144,4273.18181775,3136.24242393,4955.24242375,3334.06060573,4141.30302989,531.636363583,4353.03030259,3614.30302994,4155.72727231,4.1212121208,4778.54545407,3787.39393902,4398.36363592,135.999999986,42.0,42.0,?
2017-08-07 13:37:58.698948,4559.60606015,3873.93939355,4145.93939352,4158.30302989,3888.36363597,543.999999946,4611.12121166,156.60606059,4261.84848442,399.757575718,4434.42424198,226.666666644,4188.69696928,3733.81818144,4302.0303026,3136.24242393,4988.21212071,3334.06060573,4151.09090868,531.636363583,4362.81818138,3614.30302994,4171.18181776,4.1212121208,4793.99999952,3787.39393902,4408.66666623,135.999999986,42.0,42.0,?
2017-08-07 13:37:58.702472,4557.54545409,3873.93939355,4147.99999959,4158.30302989,3890.42424204,543.999999946,4611.12121166,156.60606059,4267.51515109,399.757575718,4434.42424198,226.666666644,4188.69696928,3733.81818144,4302.0303026,3136.24242393,4993.87878738,3334.06060573,4159.33333292,531.636363583,4362.81818138,3614.30302994,4174.27272686,4.1212121208,4793.99999952,3787.39393902,4415.87878744,135.999999986,42.0,42.0,?
2017-08-07 13:37:58.711691,4557.54545409,3873.93939355,4147.99999959,4158.30302989,3890.42424204,543.999999946,4564.7575753,156.60606059,4267.51515109,399.757575718,4433.39393895,226.666666644,4191.27272685,3733.81818144,4304.60606018,3136.24242393,4993.87878738,3334.06060573,4159.33333292,531.636363583,4364.87878744,3614.30302994,4174.27272686,4.1212121208,4798.63636316,3787.39393902,4416.90909047,135.999999986,42.0,42.0,?
2017-08-07 13:37:58.719586,4557.54545409,3873.93939355,4151.60606019,4158.30302989,3895.06060567,543.999999946,4535.90909046,156.60606059,4268.54545412,399.757575718,4432.87878744,226.666666644,4175.30302989,3733.81818144,4295.3333329,3136.24242393,4987.6969692,3334.06060573,4155.2121208,531.636363583,4365.90909047,3614.30302994,4176.33333292,4.1212121208,4800.1818177,3787.39393902,4416.90909047,135.999999986,42.0,42.0,?
2017-08-07 13:37:58.726997,4561.66666621,3873.93939355,4155.2121208,4158.30302989,3898.15151476,543.999999946,4513.75757531,156.60606059,4267.51515109,399.757575718,4433.39393895,226.666666644,4173.75757534,3733.81818144,4305.12121169,3136.24242393,4989.24242374,3334.06060573,4159.33333292,531.636363583,4368.99999956,3614.30302994,4183.03030261,4.1212121208,4804.81818134,3787.39393902,4419.99999956,135.999999986,42.0,42.0,?
2017-08-07 13:37:58.734542,4563.72727227,3873.93939355,4156.75757534,4158.30302989,3901.75757537,543.999999946,4487.99999955,156.60606059,4274.7272723,399.757575718,4432.87878744,226.666666644,4184.57575716,3733.81818144,4309.75757533,3136.24242393,4994.90909041,3334.06060573,4169.1212117,531.636363583,4372.60606017,3614.30302994,4186.1212117,4.1212121208,4809.96969649,3787.39393902,4426.18181774,135.999999986,42.0,42.0,?
2017-08-07 13:37:58.742196,4565.78787833,3873.93939355,4165.5151511,4158.30302989,3907.42424203,543.999999946,4458.12121168,156.60606059,4288.63636321,399.757575718,4439.06060562,226.666666644,4183.54545413,3733.81818144,4299.96969654,3136.24242393,4997.9999995,3334.06060573,4172.21212079,531.636363583,4376.72727229,3614.30302994,4185.60606019,4.1212121208,4816.15151467,3787.39393902,4438.03030259,135.999999986,42.0,42.0,?
2017-08-07 13:37:58.749613,4572.48484803,3873.93939355,4171.69696928,4158.30302989,3908.96969658,543.999999946,4425.15151471,156.60606059,4296.87878745,399.757575718,4449.36363592,226.666666644,4190.75757534,3733.81818144,4307.69696927,3136.24242393,5000.57575708,3334.06060573,4173.24242383,531.636363583,4381.36363593,3614.30302994,4192.30302988,4.1212121208,4822.33333285,3787.39393902,4444.72727228,135.999999986,42.0,42.0,?
2017-08-07 13:37:58.759888,4570.93939348,3873.93939355,4165.5151511,4158.30302989,3907.93939355,543.999999946,4402.48484804,156.60606059,4296.36363593,399.757575718,4453.99999955,226.666666644,4204.15151473,3733.81818144,4313.36363593,3136.24242393,4995.93939344,3334.06060573,4173.24242383,531.636363583,4378.27272683,3614.30302994,4193.84848443,4.1212121208,4819.24242376,3787.39393902,4437.51515107,135.999999986,42.0,42.0,?
2017-08-07 13:37:58.768221,4565.27272682,3873.93939355,4163.96969655,4158.30302989,3912.57575718,543.999999946,4392.18181774,156.60606059,4297.90909048,399.757575718,4452.96969652,226.666666644,4203.1212117,3733.81818144,4303.06060563,3136.24242393,4984.60606011,3334.06060573,4170.15151473,531.636363583,4374.66666623,3614.30302994,4187.15151473,4.1212121208,4813.57575709,3787.39393902,4432.87878744,135.999999986,42.0,42.0,?
2017-08-07 13:37:58.773242,4567.33333288,3873.93939355,4171.69696928,4158.30302989,3919.7878784,543.999999946,4363.3333329,156.60606059,4301.51515109,399.757575718,4451.93939349,226.666666644,4206.72727231,3733.81818144,4308.7272723,3136.24242393,4985.12121162,3334.06060573,4170.15151473,531.636363583,4379.81818138,3614.30302994,4189.72727231,4.1212121208,4818.72727225,3787.39393902,4440.09090865,135.999999986,42.0,42.0,?
2017-08-07 13:37:58.780494,4572.99999954,3873.93939355,4174.27272686,4158.30302989,3921.33333294,543.999999946,4311.81818139,156.60606059,4300.48484805,399.757575718,4453.99999955,226.666666644,4213.93939352,3733.81818144,4323.15151472,3136.24242393,4999.54545405,3334.06060573,4173.24242383,531.636363583,4383.9393935,3614.30302994,4202.60606019,4.1212121208,4825.93939346,3787.39393902,4448.33333289,135.999999986,42.0,42.0,?
2017-08-07 13:37:58.792283,4574.03030257,3873.93939355,4172.72727231,4158.30302989,3920.81818143,543.999999946,4276.78787836,156.60606059,4306.15151472,399.757575718,4459.66666622,226.666666644,4205.69696928,3733.81818144,4323.66666623,3136.24242393,5011.39393889,3334.06060573,4180.96969655,531.636363583,4386.51515108,3614.30302994,4206.21212079,4.1212121208,4829.03030255,3787.39393902,4450.90909046,135.999999986,42.0,42.0,?
2017-08-07 13:37:58.796633,4572.99999954,3873.93939355,4174.27272686,4158.30302989,3924.42424203,543.999999946,4261.84848442,156.60606059,4319.54545411,399.757575718,4466.36363592,226.666666644,4204.15151473,3733.81818144,4324.69696926,3136.24242393,5013.96969647,3334.06060573,4188.69696928,531.636363583,4388.57575714,3614.30302994,4203.63636322,4.1212121208,4833.66666618,3787.39393902,4448.33333289,135.999999986,42.0,42.0,?
2017-08-07 13:37:58.805032,4574.54545409,3873.93939355,4173.75757534,4158.30302989,3930.60606021,543.999999946,4229.39393897,156.60606059,4325.21212078,399.757575718,4474.09090864,226.666666644,4217.03030261,3733.81818144,4332.42424199,3136.24242393,5017.57575707,3334.06060573,4188.69696928,531.636363583,4390.6363632,3614.30302994,4209.30302988,4.1212121208,4838.81818133,3787.39393902,4446.78787834,135.999999986,42.0,42.0,?
2017-08-07 13:37:58.815497,4576.09090863,3873.93939355,4172.72727231,4158.30302989,3931.63636324,543.999999946,4187.66666625,156.60606059,4322.6363632,399.757575718,4474.60606016,226.666666644,4229.90909049,3733.81818144,4343.75757532,3136.24242393,5033.54545404,3334.06060573,4192.8181814,531.636363583,4392.18181774,3614.30302994,4218.57575715,4.1212121208,4842.42424194,3787.39393902,4457.09090865,135.999999986,42.0,42.0,?
2017-08-07 13:37:58.820783,4576.09090863,3873.93939355,4181.48484807,4158.30302989,3930.0909087,543.999999946,4166.54545413,156.60606059,4326.75757532,399.757575718,4472.5454541,226.666666644,4238.15151473,3733.81818144,4356.6363632,3136.24242393,5044.36363586,3334.06060573,4200.03030261,531.636363583,4394.75757532,3614.30302994,4220.63636321,4.1212121208,4846.03030255,3787.39393902,4463.27272683,135.999999986,42.0,42.0,?
2017-08-07 13:37:58.829918,4575.57575712,3873.93939355,4186.1212117,4158.30302989,3936.78787839,543.999999946,4154.18181777,156.60606059,4331.90909048,399.757575718,4478.21212076,226.666666644,4237.63636321,3733.81818144,4354.57575714,3136.24242393,5039.21212071,3334.06060573,4200.54545413,531.636363583,4397.33333289,3614.30302994,4221.66666624,4.1212121208,4848.60606012,3787.39393902,4457.60606016,135.999999986,42.0,42.0,?
2017-08-07 13:37:58.835427,4574.54545409,3873.93939355,4179.93939352,4158.30302989,3938.84848445,543.999999946,4140.78787837,156.60606059,4330.87878745,399.757575718,4483.36363592,226.666666644,4231.96969655,3733.81818144,4344.78787835,3136.24242393,5037.66666616,3334.06060573,4197.45454503,531.636363583,4395.78787835,3614.30302994,4223.21212079,4.1212121208,4848.09090861,3787.39393902,4456.57575713,135.999999986,42.0,42.0,?
2017-08-07 13:37:58.843613,4573.51515106,3873.93939355,4180.96969655,4158.30302989,3934.72727233,543.999999946,4136.15151474,156.60606059,4336.0303026,399.757575718,4479.75757531,226.666666644,4238.15151473,3733.81818144,4348.90909047,3136.24242393,5040.75757525,3334.06060573,4196.93939352,531.636363583,4394.2424238,3614.30302994,4220.63636321,4.1212121208,4851.69696921,3787.39393902,4460.18181774,135.999999986,42.0,42.0,?
2017-08-07 13:37:58.854807,4576.60606015,3873.93939355,4192.8181814,4158.30302989,3938.33333294,543.999999946,4132.54545413,156.60606059,4338.60606017,399.757575718,4479.24242379,226.666666644,4247.93939351,3733.81818144,4359.21212078,3136.24242393,5040.75757525,3334.06060573,4198.99999958,531.636363583,4396.81818138,3614.30302994,4219.60606018,4.1212121208,4853.75757527,3787.39393902,4464.81818137,135.999999986,42.0,42.0,?
2017-08-07 13:37:58.861296,4580.21212075,3873.93939355,4192.30302988,4158.30302989,3941.93939355,543.999999946,4123.27272686,156.60606059,4333.45454502,399.757575718,4481.81818137,226.666666644,4245.87878745,3733.81818144,4357.66666623,3136.24242393,5042.3030298,3334.06060573,4204.15151473,531.636363583,4397.84848441,3614.30302994,4222.69696927,4.1212121208,4847.57575709,3787.39393902,4463.78787834,135.999999986,42.0,42.0,?
2017-08-07 13:37:58.867274,4574.03030257,3873.93939355,4184.57575716,4158.30302989,3936.78787839,543.999999946,4113.99999959,156.60606059,4328.81818139,399.757575718,4479.24242379,226.666666644,4237.1212117,3733.81818144,4350.45454502,3136.24242393,5036.63636313,3334.06060573,4202.60606019,531.636363583,4390.12121168,3614.30302994,4218.06060564,4.1212121208,4839.33333285,3787.39393902,4452.45454501,135.999999986,42.0,42.0,?
2017-08-07 13:37:58.874934,4567.84848439,3873.93939355,4185.60606019,4158.30302989,3936.27272688,543.999999946,4110.9090905,156.60606059,4328.30302987,399.757575718,4473.57575713,226.666666644,4229.39393897,3733.81818144,4347.36363593,3136.24242393,5024.27272677,3334.06060573,4198.48484806,531.636363583,4388.06060562,3614.30302994,4210.33333291,4.1212121208,4840.36363588,3787.39393902,4449.36363592,135.999999986,42.0,42.0,?
2017-08-07 13:37:58.882487,4575.0606056,3873.93939355,4190.75757534,4158.30302989,3945.54545415,543.999999946,4115.03030262,156.60606059,4335.51515108,399.757575718,4476.66666622,226.666666644,4235.06060564,3733.81818144,4352.51515108,3136.24242393,5027.36363586,3334.06060573,4204.66666625,531.636363583,4397.84848441,3614.30302994,4214.45454503,4.1212121208,4850.15151467,3787.39393902,4461.72727228,135.999999986,42.0,42.0,?
2017-08-07 13:37:58.890630,4583.81818136,3873.93939355,4194.87878746,4158.30302989,3950.18181779,543.999999946,4117.09090868,156.60606059,4338.60606017,399.757575718,4477.18181773,226.666666644,4239.69696927,3733.81818144,4355.09090866,3136.24242393,5030.96969647,3334.06060573,4205.69696928,531.636363583,4399.39393895,3614.30302994,4221.15151473,4.1212121208,4856.33333285,3787.39393902,4465.33333289,135.999999986,42.0,42.0,?
2017-08-07 13:37:58.899548,4585.36363591,3873.93939355,4197.45454503,4158.30302989,3952.75757536,543.999999946,4111.93939353,156.60606059,4330.36363593,399.757575718,4469.96969652,226.666666644,4232.48484806,3733.81818144,4354.57575714,3136.24242393,5024.27272677,3334.06060573,4206.72727231,531.636363583,4402.99999956,3614.30302994,4219.60606018,4.1212121208,4860.96969648,3787.39393902,4465.33333289,135.999999986,42.0,42.0,?
2017-08-07 13:37:58.909593,4585.87878742,3873.93939355,4200.03030261,4158.30302989,3955.84848445,543.999999946,4099.57575717,156.60606059,4331.90909048,399.757575718,4469.96969652,226.666666644,4237.63636321,3733.81818144,4363.3333329,3136.24242393,5036.63636313,3334.06060573,4216.51515109,531.636363583,4408.66666623,3614.30302994,4220.1212117,4.1212121208,4863.54545406,3787.39393902,4474.60606016,135.999999986,42.0,42.0,?
2017-08-07 13:37:58.915263,4585.87878742,3873.93939355,4203.1212117,4158.30302989,3957.393939,543.999999946,4089.27272686,156.60606059,4345.30302987,399.757575718,4480.78787834,226.666666644,4249.99999958,3733.81818144,4368.99999956,3136.24242393,5043.84848434,3334.06060573,4220.63636321,531.636363583,4404.54545411,3614.30302994,4221.66666624,4.1212121208,4863.03030254,3787.39393902,4478.72727228,135.999999986,42.0,42.0,?
2017-08-07 13:37:58.922168,4587.93939348,3873.93939355,4204.15151473,4158.30302989,3960.9999996,543.999999946,4077.42424202,156.60606059,4349.42424199,399.757575718,4491.60606016,226.666666644,4250.51515109,3733.81818144,4362.30302987,3136.24242393,5026.33333283,3334.06060573,4217.03030261,531.636363583,4406.09090865,3614.30302994,4220.1212117,4.1212121208,4867.66666618,3787.39393902,4477.69696925,135.999999986,42.0,42.0,?
2017-08-07 13:37:58.929422,4586.39393894,3873.93939355,4203.63636322,4158.30302989,3963.57575718,543.999999946,4052.18181778,156.60606059,4349.42424199,399.757575718,4495.72727228,226.666666644,4247.93939351,3733.81818144,4363.84848441,3136.24242393,5027.87878738,3334.06060573,4219.09090867,531.636363583,4409.69696926,3614.30302994,4220.1212117,4.1212121208,4871.27272679,3787.39393902,4479.75757531,135.999999986,42.0,42.0,?
2017-08-07 13:37:58.940541,4581.24242378,3873.93939355,4202.09090867,4158.30302989,3960.9999996,543.999999946,4026.42424202,156.60606059,4354.57575714,399.757575718,4493.66666622,226.666666644,4251.54545412,3733.81818144,4374.66666623,3136.24242393,5044.87878737,3334.06060573,4226.30302988,531.636363583,4403.51515107,3614.30302994,4222.69696927,4.1212121208,4864.06060557,3787.39393902,4477.69696925,135.999999986,42.0,42.0,?
2017-08-07 13:37:58.946429,4584.33333287,3873.93939355,4202.60606019,4158.30302989,3962.03030263,543.999999946,4019.72727233,156.60606059,4357.15151472,399.757575718,4490.06060561,226.666666644,4255.66666624,3733.81818144,4378.78787835,3136.24242393,5041.78787828,3334.06060573,4231.96969655,531.636363583,4405.57575714,3614.30302994,4229.39393897,4.1212121208,4867.66666618,3787.39393902,4475.63636319,135.999999986,42.0,42.0,?
2017-08-07 13:37:58.952840,4591.54545409,3873.93939355,4205.69696928,4158.30302989,3964.60606021,543.999999946,4020.75757536,156.60606059,4351.99999956,399.757575718,4493.1515147,226.666666644,4264.424242,3733.81818144,4379.30302987,3136.24242393,5036.63636313,3334.06060573,4236.09090867,531.636363583,4415.36363592,3614.30302994,4230.93939352,4.1212121208,4881.06060557,3787.39393902,4478.72727228,135.999999986,42.0,42.0,?
2017-08-07 13:37:58.961294,4587.93939348,3873.93939355,4205.69696928,4158.30302989,3960.48484809,543.999999946,4012.51515111,156.60606059,4344.78787835,399.757575718,4497.27272682,226.666666644,4272.66666624,3733.81818144,4380.3333329,3136.24242393,5046.93939343,3334.06060573,4233.51515109,531.636363583,4407.6363632,3614.30302994,4220.1212117,4.1212121208,4874.87878739,3787.39393902,4478.72727228,135.999999986,42.0,42.0,?
2017-08-07 13:37:58.974173,4579.69696924,3873.93939355,4203.1212117,4158.30302989,3962.03030263,543.999999946,4003.24242384,156.60606059,4346.3333329,399.757575718,4491.09090864,226.666666644,4268.54545412,3733.81818144,4380.84848441,3136.24242393,5047.96969646,3334.06060573,4231.45454503,531.636363583,4397.33333289,3614.30302994,4211.87878746,4.1212121208,4863.54545406,3787.39393902,4478.72727228,135.999999986,42.0,42.0,?
2017-08-07 13:37:58.976879,4586.39393894,3873.93939355,4206.72727231,4158.30302989,3970.78787839,543.999999946,3997.06060566,156.60606059,4354.06060563,399.757575718,4487.99999955,226.666666644,4263.90909048,3733.81818144,4384.96969653,3136.24242393,5041.27272677,3334.06060573,4238.66666624,531.636363583,4408.15151471,3614.30302994,4222.69696927,4.1212121208,4873.84848436,3787.39393902,4481.81818137,135.999999986,42.0,42.0,?
2017-08-07 13:37:58.993078,4591.54545409,3873.93939355,4210.84848443,4158.30302989,3968.72727233,543.999999946,3990.87878748,156.60606059,4355.09090866,399.757575718,4490.57575713,226.666666644,4267.51515109,3733.81818144,4383.42424199,3136.24242393,5043.33333283,3334.06060573,4245.87878745,531.636363583,4415.36363592,3614.30302994,4235.06060564,4.1212121208,4875.39393891,3787.39393902,4482.8484844,135.999999986,42.0,42.0,?
2017-08-07 13:37:58.995848,4582.78787833,3873.93939355,4207.75757534,4158.30302989,3966.66666627,543.999999946,3985.72727233,156.60606059,4359.21212078,399.757575718,4492.12121167,226.666666644,4269.06060563,3733.81818144,4382.90909047,3136.24242393,5045.9090904,3334.06060573,4240.21212079,531.636363583,4402.48484804,3614.30302994,4227.33333291,4.1212121208,4859.93939345,3787.39393902,4480.78787834,135.999999986,42.0,42.0,?
2017-08-07 13:37:58.999537,4581.7575753,3873.93939355,4209.30302988,4158.30302989,3972.84848445,543.999999946,3985.21212081,156.60606059,4364.36363593,399.757575718,4493.1515147,226.666666644,4255.66666624,3733.81818144,4378.78787835,3136.24242393,5042.3030298,3334.06060573,4233.51515109,531.636363583,4401.45454501,3614.30302994,4216.51515109,4.1212121208,4862.51515103,3787.39393902,4479.24242379,135.999999986,42.0,42.0,?
2017-08-07 13:37:59.010719,4589.48484803,3873.93939355,4215.99999958,4158.30302989,3973.87878748,543.999999946,3986.24242384,156.60606059,4355.60606017,399.757575718,4487.48484804,226.666666644,4242.27272685,3733.81818144,4368.99999956,3136.24242393,5040.24242374,3334.06060573,4246.39393897,531.636363583,4412.78787835,3614.30302994,4218.06060564,4.1212121208,4872.30302982,3787.39393902,4483.36363592,135.999999986,42.0,42.0,?
2017-08-07 13:37:59.015303,4589.99999954,3873.93939355,4219.09090867,4158.30302989,3972.84848445,543.999999946,3982.12121172,156.60606059,4349.9393935,399.757575718,4481.81818137,226.666666644,4244.84848442,3733.81818144,4369.51515108,3136.24242393,5038.18181768,3334.06060573,4255.15151473,531.636363583,4409.69696926,3614.30302994,4224.24242382,4.1212121208,4869.72727224,3787.39393902,4492.63636319,135.999999986,42.0,42.0,?
2017-08-07 13:37:59.024686,4587.93939348,3886.30302991,4218.57575715,4158.30302989,3976.45454506,543.999999946,3976.45454506,156.60606059,4355.09090866,399.757575718,4487.48484804,226.666666644,4253.09090867,3733.81818144,4375.69696926,3136.24242393,5037.15151465,3334.06060573,4240.7272723,531.636363583,4404.54545411,3614.30302994,4222.69696927,4.1212121208,4870.75757527,3787.39393902,4493.1515147,135.999999986,42.0,42.0,?
2017-08-07 13:37:59.031226,4588.96969651,3886.30302991,4217.54545412,4158.30302989,3977.48484809,543.999999946,3975.42424203,156.60606059,4356.6363632,399.757575718,4490.57575713,226.666666644,4256.69696927,3733.81818144,4376.21212077,3136.24242393,5035.6060601,3334.06060573,4237.1212117,531.636363583,4406.60606017,3614.30302994,4220.1212117,4.1212121208,4875.90909042,3787.39393902,4484.90909046,135.999999986,42.0,42.0,?
2017-08-07 13:37:59.039544,4589.48484803,3886.30302991,4219.09090867,4158.30302989,3972.33333294,543.999999946,3974.90909051,156.60606059,4357.66666623,399.757575718,4487.48484804,226.666666644,4252.57575715,3733.81818144,4375.69696926,3136.24242393,5028.90909041,3334.06060573,4245.87878745,531.636363583,4409.69696926,3614.30302994,4220.63636321,4.1212121208,4874.36363588,3787.39393902,4483.87878743,144.242424228,42.0,42.0,?
2017-08-07 13:37:59.050526,4588.96969651,3886.30302991,4216.51515109,4158.30302989,3967.18181779,552.242424187,3969.24242385,156.60606059,4365.39393896,399.757575718,4489.03030258,226.666666644,4255.66666624,3733.81818144,4380.3333329,3136.24242393,5026.33333283,3334.06060573,4244.84848442,531.636363583,4410.21212077,3614.30302994,4222.18181776,4.1212121208,4873.33333285,3787.39393902,4487.48484804,144.242424228,42.0,42.0,?
2017-08-07 13:37:59.057240,4586.39393894,3886.30302991,4208.27272685,4158.30302989,3965.12121172,552.242424187,3965.12121172,152.48484847,4365.90909047,399.757575718,4494.69696925,226.666666644,4264.93939351,3733.81818144,4383.9393935,3136.24242393,5033.03030253,3334.06060573,4238.15151473,531.636363583,4407.6363632,3614.30302994,4221.66666624,4.1212121208,4872.30302982,3787.39393902,4481.81818137,144.242424228,42.0,42.0,?
2017-08-07 13:37:59.067663,4585.36363591,3886.30302991,4208.78787837,4158.30302989,3965.63636324,552.242424187,3970.27272688,152.48484847,4360.24242381,395.636363597,4494.18181773,226.666666644,4259.78787836,3733.81818144,4381.36363593,3136.24242393,5036.12121162,3334.06060573,4236.09090867,531.636363583,4407.6363632,3614.30302994,4220.1212117,4.1212121208,4868.69696921,3787.39393902,4479.24242379,144.242424228,42.0,42.0,?
2017-08-07 13:37:59.076290,4587.42424197,3886.30302991,4219.09090867,4158.30302989,3968.21212082,552.242424187,3974.393939,152.48484847,4360.24242381,395.636363597,4487.48484804,226.666666644,4253.60606018,3733.81818144,4382.39393896,3136.24242393,5036.63636313,3334.06060573,4238.15151473,531.636363583,4410.72727229,3614.30302994,4216.51515109,4.1212121208,4871.27272679,3787.39393902,4490.57575713,144.242424228,42.0,42.0,?
2017-08-07 13:37:59.079994,4591.03030257,3886.30302991,4221.66666624,4158.30302989,3968.72727233,552.242424187,3973.87878748,152.48484847,4360.24242381,395.636363597,4485.42424198,226.666666644,4259.27272685,3737.93939357,4388.06060562,3136.24242393,5043.84848434,3334.06060573,4246.90909048,531.636363583,4414.84848441,3614.30302994,4221.66666624,4.1212121208,4878.484848,3787.39393902,4497.78787834,144.242424228,42.0,42.0,?
2017-08-07 13:37:59.087616,4591.54545409,3886.30302991,4219.09090867,4158.30302989,3971.30302991,552.242424187,3972.84848445,152.48484847,4361.78787835,395.636363597,4491.60606016,226.666666644,4262.36363594,3737.93939357,4388.57575714,3144.48484817,5049.51515101,3334.06060573,4253.60606018,531.636363583,4417.9393935,3614.30302994,4230.93939352,4.1212121208,4881.06060557,3787.39393902,4496.24242379,144.242424228,42.0,42.0,?
2017-08-07 13:37:59.099142,4588.96969651,3886.30302991,4219.09090867,4158.30302989,3972.84848445,552.242424187,3972.84848445,152.48484847,4372.60606017,395.636363597,4498.81818137,226.666666644,4264.93939351,3737.93939357,4385.99999956,3144.48484817,5047.96969646,3334.06060573,4249.48484806,531.636363583,4417.9393935,3614.30302994,4225.78787837,4.1212121208,4878.99999951,3787.39393902,4494.69696925,144.242424228,42.0,42.0,?
2017-08-07 13:37:59.106334,4589.99999954,3886.30302991,4219.09090867,4158.30302989,3970.27272688,552.242424187,3971.81818142,152.48484847,4378.78787835,395.636363597,4504.99999955,226.666666644,4276.78787836,3737.93939357,4392.18181774,3144.48484817,5044.36363586,3334.06060573,4248.45454503,531.636363583,4416.90909047,3614.30302994,4221.66666624,4.1212121208,4880.54545406,3787.39393902,4493.66666622,144.242424228,42.0,42.0,?
2017-08-07 13:37:59.118069,4589.48484803,3886.30302991,4217.54545412,4158.30302989,3972.33333294,552.242424187,3971.30302991,152.48484847,4371.06060562,395.636363597,4506.03030258,226.666666644,4275.24242381,3737.93939357,4396.81818138,3144.48484817,5044.87878737,3334.06060573,4250.51515109,531.636363583,4414.33333289,3622.54545418,4234.54545412,4.1212121208,4880.03030254,3787.39393902,4494.18181773,144.242424228,42.0,42.0,?
2017-08-07 13:37:59.120339,4587.42424197,3886.30302991,4219.60606018,4158.30302989,3976.45454506,552.242424187,3970.27272688,152.48484847,4366.9393935,395.636363597,4499.33333288,226.666666644,4264.424242,3737.93939357,4388.57575714,3144.48484817,5048.48484798,3334.06060573,4251.54545412,531.636363583,4416.90909047,3622.54545418,4240.21212079,8.2424242416,4877.96969648,3787.39393902,4494.69696925,144.242424228,42.0,42.0,?
2017-08-07 13:37:59.132647,4591.03030257,3886.30302991,4223.21212079,4158.30302989,3980.06060566,552.242424187,3969.75757536,152.48484847,4375.18181774,395.636363597,4501.90909046,226.666666644,4266.48484806,3737.93939357,4385.48484805,3144.48484817,5046.42424192,3334.06060573,4254.1212117,531.636363583,4423.60606016,3622.54545418,4232.99999958,8.2424242416,4883.63636315,3787.39393902,4497.27272682,144.242424228,42.0,42.0,?
2017-08-07 13:37:59.136271,4596.18181772,3886.30302991,4222.69696927,4158.30302989,3980.57575718,552.242424187,3971.30302991,152.48484847,4382.90909047,395.636363597,4510.66666622,226.666666644,4269.06060563,3737.93939357,4390.6363632,3144.48484817,5041.27272677,3334.06060573,4252.57575715,527.515151462,4423.09090865,3622.54545418,4234.54545412,8.2424242416,4886.21212072,3787.39393902,4499.33333288,144.242424228,42.0,42.0,?
2017-08-07 13:37:59.144229,4595.66666621,3886.30302991,4224.75757534,4158.30302989,3979.54545415,552.242424187,3968.72727233,152.48484847,4380.3333329,395.636363597,4506.54545409,226.666666644,4265.96969654,3737.93939357,4390.6363632,3144.48484817,5043.33333283,3334.06060573,4252.06060564,527.515151462,4420.51515107,3610.18181782,4239.18181776,8.2424242416,4885.69696921,3787.39393902,4498.81818137,144.242424228,42.0,42.0,?
2017-08-07 13:37:59.151988,4593.09090863,3886.30302991,4230.93939352,4158.30302989,3976.45454506,552.242424187,3965.12121172,152.48484847,4374.66666623,395.636363597,4497.78787834,226.666666644,4267.51515109,3737.93939357,4384.96969653,3144.48484817,5047.96969646,3334.06060573,4252.06060564,527.515151462,4421.03030259,3610.18181782,4232.99999958,12.3636363624,4887.75757527,3787.39393902,4497.27272682,144.242424228,42.0,42.0,?
2017-08-07 13:37:59.156414,4592.57575712,3886.30302991,4228.87878746,4158.30302989,3972.84848445,552.242424187,3964.09090869,152.48484847,4367.96969653,395.636363597,4496.75757531,226.666666644,4269.06060563,3737.93939357,4381.36363593,3144.48484817,5037.15151465,3334.06060573,4238.15151473,527.515151462,4418.45454501,3610.18181782,4225.27272685,12.3636363624,4886.72727224,3787.39393902,4496.24242379,144.242424228,42.0,42.0,?
2017-08-07 13:37:59.166282,4584.33333287,3886.30302991,4218.57575715,4158.30302989,3966.15151475,552.242424187,3959.96969657,152.48484847,4362.30302987,395.636363597,4493.66666622,226.666666644,4260.30302988,3737.93939357,4380.3333329,3144.48484817,5020.66666616,3334.06060573,4222.18181776,527.515151462,4407.6363632,3610.18181782,4215.99999958,12.3636363624,4876.42424194,3787.39393902,4488.51515107,144.242424228,42.0,42.0,?
2017-08-07 13:37:59.173444,4577.63636318,3886.30302991,4218.06060564,4158.30302989,3963.06060566,552.242424187,3955.33333294,152.48484847,4360.24242381,395.636363597,4487.48484804,226.666666644,4248.45454503,3737.93939357,4383.9393935,3144.48484817,5028.39393889,3334.06060573,4229.90909049,527.515151462,4403.51515107,3610.18181782,4215.48484806,12.3636363624,4872.30302982,3787.39393902,4487.48484804,144.242424228,42.0,42.0,?
2017-08-07 13:37:59.182964,4586.90909045,3886.30302991,4228.87878746,4158.30302989,3972.84848445,552.242424187,3954.30302991,152.48484847,4361.27272684,395.636363597,4486.45454501,226.666666644,4249.99999958,3737.93939357,4388.57575714,3144.48484817,5041.27272677,3334.06060573,4244.84848442,527.515151462,4414.33333289,3610.18181782,4229.39393897,12.3636363624,4882.60606012,3787.39393902,4495.72727228,144.242424228,42.0,42.0,?
2017-08-07 13:37:59.188395,4598.24242378,3886.30302991,4235.06060564,4158.30302989,3979.54545415,552.242424187,3954.81818142,152.48484847,4362.81818138,395.636363597,4490.06060561,226.666666644,4255.15151473,3737.93939357,4384.45454502,3144.48484817,5031.9999995,3334.06060573,4244.84848442,527.515151462,4421.5454541,3610.18181782,4234.03030261,12.3636363624,4892.3939389,3787.39393902,4497.27272682,144.242424228,42.0,42.0,?
2017-08-07 13:37:59.199921,4598.7575753,3886.30302991,4234.54545412,4158.30302989,3980.57575718,552.242424187,3956.87878748,152.48484847,4362.81818138,395.636363597,4495.72727228,226.666666644,4251.54545412,3737.93939357,4376.21212077,3144.48484817,5023.24242374,3334.06060573,4243.30302988,527.515151462,4421.03030259,3610.18181782,4228.87878746,12.3636363624,4893.93939345,3787.39393902,4498.81818137,144.242424228,42.0,42.0,?
2017-08-07 13:37:59.207838,4596.18181772,3886.30302991,4236.60606018,4158.30302989,3982.63636324,552.242424187,3957.393939,152.48484847,4361.27272684,395.636363597,4499.33333288,226.666666644,4248.45454503,3737.93939357,4374.66666623,3144.48484817,5031.9999995,3334.06060573,4251.54545412,527.515151462,4424.63636319,3610.18181782,4230.93939352,12.3636363624,4893.93939345,3787.39393902,4510.66666622,144.242424228,42.0,42.0,?
2017-08-07 13:37:59.213169,4596.18181772,3886.30302991,4235.57575715,4158.30302989,3980.06060566,552.242424187,3952.75757536,152.48484847,4363.84848441,395.636363597,4500.87878743,226.666666644,4259.27272685,3737.93939357,4379.30302987,3144.48484817,5037.66666616,3334.06060573,4254.1212117,527.515151462,4424.63636319,3610.18181782,4230.424242,12.3636363624,4889.30302981,3787.39393902,4511.69696925,144.242424228,42.0,42.0,?
2017-08-07 13:37:59.218675,4589.99999954,3886.30302991,4228.87878746,4158.30302989,3970.78787839,552.242424187,3950.18181779,152.48484847,4366.42424199,395.636363597,4498.30302985,226.666666644,4267.51515109,3737.93939357,4384.45454502,3144.48484817,5035.6060601,3334.06060573,4245.36363594,527.515151462,4415.36363592,3610.18181782,4225.27272685,12.3636363624,4880.03030254,3787.39393902,4497.27272682,144.242424228,42.0,42.0,?
2017-08-07 13:37:59.228390,4582.78787833,3886.30302991,4228.87878746,4158.30302989,3967.18181779,552.242424187,3947.60606021,152.48484847,4358.69696926,395.636363597,4491.60606016,226.666666644,4259.78787836,3737.93939357,4382.90909047,3144.48484817,5036.63636313,3334.06060573,4244.33333291,527.515151462,4411.2424238,3610.18181782,4227.84848443,12.3636363624,4875.90909042,3787.39393902,4491.60606016,144.242424228,42.0,42.0,?
2017-08-07 13:37:59.234700,4587.93939348,3886.30302991,4242.78787836,4158.30302989,3974.393939,552.242424187,3935.24242385,152.48484847,4357.15151472,395.636363597,4494.69696925,226.666666644,4263.90909048,3737.93939357,4387.54545411,3144.48484817,5043.84848434,3334.06060573,4251.03030261,527.515151462,4419.99999956,3610.18181782,4237.63636321,12.3636363624,4882.0909086,3787.39393902,4501.90909046,144.242424228,42.0,42.0,?
2017-08-07 13:37:59.242155,4594.63636318,3886.30302991,4253.60606018,4158.30302989,3979.54545415,552.242424187,3919.7878784,152.48484847,4368.99999956,395.636363597,4508.60606016,226.666666644,4280.90909048,3737.93939357,4400.42424198,3144.48484817,5053.63636313,3334.06060573,4254.1212117,527.515151462,4424.12121168,3610.18181782,4241.75757533,12.3636363624,4890.33333284,3787.39393902,4511.69696925,144.242424228,42.0,42.0,?
2017-08-07 13:37:59.249986,4593.09090863,3886.30302991,4253.60606018,4158.30302989,3974.90909051,552.242424187,3911.54545415,152.48484847,4378.78787835,395.636363597,4509.12121167,226.666666644,4278.33333291,3737.93939357,4402.48484804,3144.48484817,5059.3030298,3334.06060573,4255.15151473,527.515151462,4417.42424198,3610.18181782,4238.15151473,12.3636363624,4889.30302981,3787.39393902,4507.06060561,144.242424228,42.0,42.0,?
2017-08-07 13:37:59.257732,4589.48484803,3886.30302991,4251.03030261,4158.30302989,3971.81818142,552.242424187,3908.96969658,152.48484847,4375.69696926,395.636363597,4500.36363591,226.666666644,4265.45454503,3737.93939357,4395.27272683,3144.48484817,5056.72727222,3334.06060573,4256.69696927,527.515151462,4418.45454501,3610.18181782,4238.15151473,12.3636363624,4885.69696921,3787.39393902,4501.39393894,144.242424228,42.0,42.0,?
2017-08-07 13:37:59.269182,4589.48484803,3886.30302991,4252.57575715,4158.30302989,3975.93939354,552.242424187,3910.51515112,152.48484847,4373.12121168,395.636363597,4501.90909046,226.666666644,4268.54545412,3737.93939357,4395.78787835,3144.48484817,5056.21212071,3334.06060573,4256.69696927,527.515151462,4423.60606016,3610.18181782,4233.51515109,12.3636363624,4889.81818133,3787.39393902,4505.51515106,144.242424228,42.0,42.0,?
2017-08-07 13:37:59.279744,4589.48484803,3886.30302991,4255.66666624,4158.30302989,3975.42424203,552.242424187,3917.21212082,152.48484847,4376.72727229,395.636363597,4508.09090864,226.666666644,4271.63636321,3737.93939357,4394.75757532,3144.48484817,5053.12121162,3334.06060573,4250.51515109,527.515151462,4417.42424198,3610.18181782,4222.18181776,12.3636363624,4889.30302981,3787.39393902,4504.99999955,144.242424228,42.0,42.0,?
2017-08-07 13:37:59.292012,4582.78787833,3886.30302991,4253.60606018,4158.30302989,3968.72727233,552.242424187,3915.66666628,152.48484847,4378.78787835,395.636363597,4509.12121167,226.666666644,4262.36363594,3737.93939357,4382.39393896,3144.48484817,5035.09090859,3334.06060573,4241.24242382,527.515151462,4407.6363632,3610.18181782,4217.54545412,12.3636363624,4874.36363588,3787.39393902,4494.18181773,144.242424228,42.0,42.0,?
2017-08-07 13:37:59.296829,4576.60606015,3886.30302991,4250.51515109,4158.30302989,3969.75757536,552.242424187,3908.96969658,152.48484847,4376.21212077,395.636363597,4504.99999955,226.666666644,4259.78787836,3737.93939357,4378.78787835,3144.48484817,5027.87878738,3334.06060573,4240.21212079,527.515151462,4404.54545411,3610.18181782,4217.54545412,12.3636363624,4864.57575709,3787.39393902,4486.96969652,144.242424228,42.0,42.0,?
2017-08-07 13:37:59.300186,4578.15151469,3886.30302991,4250.51515109,4158.30302989,3972.84848445,552.242424187,3909.48484809,152.48484847,4373.12121168,395.636363597,4502.93939349,226.666666644,4268.54545412,3737.93939357,4388.06060562,3144.48484817,5045.39393889,3334.06060573,4243.30302988,527.515151462,4406.60606017,3610.18181782,4214.45454503,12.3636363624,4872.30302982,3787.39393902,4490.57575713,144.242424228,42.0,42.0,?
2017-08-07 13:37:59.304356,4581.24242378,3886.30302991,4251.03030261,4158.30302989,3970.27272688,552.242424187,3911.54545415,152.48484847,4373.12121168,395.636363597,4507.06060561,226.666666644,4278.33333291,3737.93939357,4396.30302986,3144.48484817,5058.78787828,3334.06060573,4240.7272723,527.515151462,4408.66666623,3610.18181782,4217.03030261,12.3636363624,4873.84848436,3787.39393902,4495.72727228,144.242424228,42.0,42.0,?
2017-08-07 13:37:59.312388,4578.66666621,3886.30302991,4246.39393897,4158.30302989,3970.27272688,552.242424187,3905.87878749,152.48484847,4365.90909047,395.636363597,4506.03030258,226.666666644,4270.60606018,3737.93939357,4386.51515108,3144.48484817,5049.51515101,3334.06060573,4235.57575715,527.515151462,4404.03030259,3610.18181782,4216.51515109,12.3636363624,4861.484848,3787.39393902,4495.72727228,144.242424228,42.0,42.0,?
2017-08-07 13:37:59.320758,4575.57575712,3886.30302991,4242.78787836,4158.30302989,3974.90909051,552.242424187,3905.36363597,152.48484847,4361.78787835,395.636363597,4494.18181773,226.666666644,4251.03030261,3737.93939357,4367.45454502,3144.48484817,5039.72727222,3334.06060573,4230.424242,527.515151462,4399.90909047,3610.18181782,4203.1212117,12.3636363624,4856.33333285,3787.39393902,4491.09090864,144.242424228,42.0,42.0,?
2017-08-07 13:37:59.329244,4578.66666621,3886.30302991,4248.96969654,4158.30302989,3981.60606021,552.242424187,3912.06060567,152.48484847,4372.09090865,395.636363597,4493.66666622,226.666666644,4253.60606018,3737.93939357,4370.03030259,3144.48484817,5040.75757525,3334.06060573,4221.66666624,527.515151462,4407.6363632,3610.18181782,4199.5151511,12.3636363624,4863.03030254,3787.39393902,4492.63636319,144.242424228,42.0,42.0,?
2017-08-07 13:37:59.335345,4587.42424197,3886.30302991,4255.66666624,4158.30302989,3987.78787839,552.242424187,3914.63636324,152.48484847,4371.57575714,395.636363597,4500.36363591,226.666666644,4266.48484806,3737.93939357,4380.3333329,3144.48484817,5038.69696919,3334.06060573,4219.09090867,527.515151462,4419.99999956,3610.18181782,4207.24242382,12.3636363624,4868.1818177,3787.39393902,4499.33333288,144.242424228,42.0,42.0,?
2017-08-07 13:37:59.343203,4589.48484803,3886.30302991,4251.03030261,4158.30302989,3985.72727233,552.242424187,3911.54545415,152.48484847,4357.66666623,395.636363597,4494.69696925,226.666666644,4257.7272723,3737.93939357,4373.12121168,3144.48484817,5036.63636313,3334.06060573,4219.60606018,527.515151462,4419.48484804,3610.18181782,4203.1212117,12.3636363624,4864.06060557,3787.39393902,4496.24242379,144.242424228,42.0,42.0,?
2017-08-07 13:37:59.353075,4582.78787833,3886.30302991,4246.39393897,4158.30302989,3983.66666627,552.242424187,3909.48484809,152.48484847,4357.15151472,395.636363597,4491.09090864,226.666666644,4248.96969654,3737.93939357,4366.9393935,3144.48484817,5038.69696919,3334.06060573,4219.60606018,527.515151462,4415.36363592,3610.18181782,4198.99999958,12.3636363624,4859.93939345,3787.39393902,4493.66666622,144.242424228,42.0,42.0,?
2017-08-07 13:37:59.360476,4584.84848439,3886.30302991,4252.06060564,4158.30302989,3989.33333293,552.242424187,3913.60606021,152.48484847,4372.60606017,395.636363597,4503.96969652,226.666666644,4264.424242,3737.93939357,4378.27272683,3144.48484817,5038.18181768,3334.06060573,4226.30302988,527.515151462,4426.18181774,3610.18181782,4208.78787837,12.3636363624,4870.75757527,3787.39393902,4502.42424197,144.242424228,42.0,42.0,?
2017-08-07 13:37:59.367764,4587.93939348,3886.30302991,4250.51515109,4158.30302989,3994.9999996,552.242424187,3914.63636324,152.48484847,4383.42424199,395.636363597,4511.18181773,226.666666644,4274.21212078,3737.93939357,4385.48484805,3144.48484817,5041.78787828,3334.06060573,4230.424242,527.515151462,4432.87878744,3610.18181782,4219.60606018,12.3636363624,4881.57575709,3787.39393902,4515.81818137,144.242424228,42.0,42.0,?
2017-08-07 13:37:59.383205,4584.33333287,3886.30302991,4243.30302988,4158.30302989,3996.54545415,552.242424187,3913.0909087,152.48484847,4380.3333329,395.636363597,4500.36363591,226.666666644,4263.39393897,3737.93939357,4383.42424199,3144.48484817,5051.57575707,3334.06060573,4228.87878746,527.515151462,4432.87878744,3610.18181782,4212.39393897,12.3636363624,4880.54545406,3787.39393902,4525.09090864,144.242424228,42.0,42.0,?
2017-08-07 13:37:59.393388,4586.90909045,3886.30302991,4247.93939351,4158.30302989,3997.06060566,552.242424187,3915.66666628,152.48484847,4366.42424199,395.636363597,4489.03030258,226.666666644,4254.63636321,3737.93939357,4381.87878744,3144.48484817,5055.18181768,3334.06060573,4227.84848443,527.515151462,4435.45454501,3610.18181782,4199.5151511,12.3636363624,4882.60606012,3787.39393902,4528.69696924,144.242424228,42.0,42.0,?
2017-08-07 13:37:59.399599,4592.0606056,3886.30302991,4249.48484806,4158.30302989,3992.93939354,552.242424187,3915.15151476,152.48484847,4358.18181775,395.636363597,4485.93939349,226.666666644,4251.54545412,3737.93939357,4376.21212077,3144.48484817,5047.45454495,3334.06060573,4224.24242382,527.515151462,4430.30302986,3610.18181782,4207.75757534,12.3636363624,4883.12121163,3787.39393902,4527.1515147,144.242424228,42.0,42.0,?
2017-08-07 13:37:59.404172,4586.39393894,3886.30302991,4242.78787836,4158.30302989,3990.36363596,552.242424187,3912.57575718,152.48484847,4360.24242381,395.636363597,4485.93939349,226.666666644,4242.78787836,3737.93939357,4367.96969653,3144.48484817,5040.24242374,3334.06060573,4218.57575715,527.515151462,4423.60606016,3610.18181782,4224.24242382,12.3636363624,4874.87878739,3787.39393902,4524.06060561,144.242424228,42.0,42.0,?
2017-08-07 13:37:59.407976,4584.84848439,3886.30302991,4245.87878745,4158.30302989,3994.9999996,552.242424187,3916.18181779,152.48484847,4361.78787835,395.636363597,4489.5454541,226.666666644,4241.24242382,3737.93939357,4367.45454502,3144.48484817,5038.18181768,3334.06060573,4223.7272723,527.515151462,4427.21212077,3610.18181782,4219.09090867,12.3636363624,4872.81818133,3787.39393902,4522.51515106,144.242424228,42.0,42.0,?
2017-08-07 13:37:59.414535,4593.60606015,3886.30302991,4254.1212117,4158.30302989,4004.78787839,552.242424187,3921.84848446,152.48484847,4371.57575714,395.636363597,4497.78787834,226.666666644,4252.57575715,3737.93939357,4373.6363632,3144.48484817,5044.36363586,3334.06060573,4232.48484806,527.515151462,4432.36363592,3610.18181782,4209.30302988,12.3636363624,4882.60606012,3787.39393902,4524.57575712,144.242424228,42.0,42.0,?
2017-08-07 13:37:59.422277,4596.69696924,3886.30302991,4254.63636321,4158.30302989,4009.42424202,552.242424187,3921.84848446,152.48484847,4381.36363593,395.636363597,4506.54545409,226.666666644,4255.66666624,3737.93939357,4371.57575714,3144.48484817,5047.45454495,3334.06060573,4229.90909049,527.515151462,4433.39393895,3610.18181782,4216.51515109,12.3636363624,4883.12121163,3787.39393902,4528.18181773,144.242424228,42.0,42.0,?
2017-08-07 13:37:59.429688,4593.60606015,3886.30302991,4253.60606018,4158.30302989,4007.36363596,552.242424187,3922.36363597,152.48484847,4371.06060562,395.636363597,4507.57575713,226.666666644,4253.09090867,3737.93939357,4367.45454502,3144.48484817,5036.63636313,3334.06060573,4222.18181776,527.515151462,4429.78787834,3610.18181782,4220.1212117,12.3636363624,4872.30302982,3787.39393902,4528.18181773,144.242424228,42.0,42.0,?
2017-08-07 13:37:59.437092,4592.0606056,3886.30302991,4254.63636321,4158.30302989,4002.72727233,552.242424187,3925.45454506,152.48484847,4357.66666623,395.636363597,4495.72727228,226.666666644,4258.75757533,3737.93939357,4371.06060562,3144.48484817,5033.54545404,3334.06060573,4218.06060564,527.515151462,4427.21212077,3610.18181782,4205.69696928,12.3636363624,4869.72727224,3787.39393902,4524.57575712,144.242424228,42.0,42.0,?
2017-08-07 13:37:59.446609,4591.54545409,3886.30302991,4253.09090867,4158.30302989,3998.60606021,552.242424187,3928.03030264,152.48484847,4365.39393896,395.636363597,4487.99999955,226.666666644,4259.27272685,3737.93939357,4371.06060562,3144.48484817,5048.9999995,3334.06060573,4219.09090867,527.515151462,4429.78787834,3610.18181782,4198.48484806,12.3636363624,4871.7878783,3787.39393902,4526.63636318,144.242424228,42.0,42.0,?
2017-08-07 13:37:59.453059,4589.99999954,3886.30302991,4253.09090867,4158.30302989,3994.48484809,552.242424187,3926.48484809,152.48484847,4372.09090865,395.636363597,4495.72727228,226.666666644,4256.69696927,3737.93939357,4371.57575714,3144.48484817,5055.69696919,3334.06060573,4220.1212117,527.515151462,4429.27272683,3610.18181782,4208.78787837,12.3636363624,4865.60606012,3787.39393902,4524.57575712,144.242424228,42.0,42.0,?
2017-08-07 13:37:59.461062,4586.39393894,3886.30302991,4253.09090867,4158.30302989,3994.48484809,552.242424187,3926.48484809,152.48484847,4362.81818138,395.636363597,4497.78787834,226.666666644,4261.33333291,3737.93939357,4377.75757532,3144.48484817,5048.48484798,3334.06060573,4217.03030261,527.515151462,4420.51515107,3610.18181782,4215.48484806,12.3636363624,4857.36363588,3787.39393902,4514.78787834,144.242424228,42.0,42.0,?
2017-08-07 13:37:59.468533,4583.30302984,3886.30302991,4252.06060564,4158.30302989,3993.96969657,552.242424187,3934.21212082,152.48484847,4363.84848441,395.636363597,4489.03030258,226.666666644,4265.45454503,3737.93939357,4380.3333329,3144.48484817,5045.39393889,3334.06060573,4213.93939352,527.515151462,4418.96969653,3610.18181782,4206.72727231,12.3636363624,4860.45454497,3787.39393902,4511.18181773,144.242424228,42.0,42.0,?
2017-08-07 13:37:59.476299,4583.30302984,3886.30302991,4251.54545412,4158.30302989,3989.33333293,552.242424187,3938.33333294,152.48484847,4372.09090865,395.636363597,4490.57575713,226.666666644,4268.54545412,3737.93939357,4380.84848441,3144.48484817,5048.9999995,3334.06060573,4216.51515109,527.515151462,4425.15151471,3610.18181782,4202.60606019,12.3636363624,4866.63636315,3787.39393902,4512.21212076,144.242424228,42.0,42.0,?
2017-08-07 13:37:59.485042,4583.30302984,3886.30302991,4251.54545412,4158.30302989,3986.75757536,552.242424187,3936.27272688,152.48484847,4365.90909047,395.636363597,4494.18181773,226.666666644,4272.15151472,3737.93939357,4384.45454502,3144.48484817,5052.6060601,3334.06060573,4221.15151473,527.515151462,4426.69696925,3610.18181782,4212.39393897,12.3636363624,4866.12121163,3787.39393902,4515.81818137,144.242424228,42.0,42.0,?
2017-08-07 13:37:59.494375,4588.96969651,3886.30302991,4252.57575715,4158.30302989,3988.81818142,552.242424187,3938.33333294,152.48484847,4357.15151472,395.636363597,4490.57575713,226.666666644,4267.51515109,3737.93939357,4383.42424199,3144.48484817,5054.15151465,3334.06060573,4225.78787837,527.515151462,4429.78787834,3610.18181782,4220.63636321,12.3636363624,4871.27272679,3787.39393902,4522.51515106,144.242424228,42.0,42.0,?
2017-08-07 13:37:59.505824,4596.18181772,3886.30302991,4255.15151473,4158.30302989,3992.42424203,552.242424187,3942.96969658,152.48484847,4361.27272684,395.636363597,4488.51515107,226.666666644,4265.96969654,3737.93939357,4383.42424199,3144.48484817,5061.87878737,3334.06060573,4236.09090867,527.515151462,4437.51515107,3610.18181782,4224.24242382,12.3636363624,4878.99999951,3787.39393902,4526.63636318,144.242424228,42.0,42.0,?
2017-08-07 13:37:59.512064,4596.18181772,3886.30302991,4253.60606018,4158.30302989,3993.45454506,552.242424187,3947.0909087,152.48484847,4365.39393896,395.636363597,4490.06060561,226.666666644,4270.60606018,3737.93939357,4388.06060562,3144.48484817,5067.03030252,3334.06060573,4237.1212117,527.515151462,4439.57575713,3610.18181782,4226.8181814,12.3636363624,4878.484848,3787.39393902,4529.21212076,144.242424228,42.0,42.0,?
2017-08-07 13:37:59.515079,4592.0606056,3886.30302991,4249.99999958,4158.30302989,3985.21212081,552.242424187,3949.66666627,152.48484847,4366.42424199,395.636363597,4494.69696925,226.666666644,4266.48484806,3737.93939357,4381.36363593,3144.48484817,5053.63636313,3334.06060573,4224.24242382,527.515151462,4436.48484804,3610.18181782,4221.15151473,12.3636363624,4878.99999951,3787.39393902,4528.18181773,144.242424228,42.0,42.0,?
2017-08-07 13:37:59.525174,4590.51515106,3886.30302991,4248.96969654,4158.30302989,3976.96969657,552.242424187,3950.18181779,152.48484847,4374.15151471,395.636363597,4506.03030258,226.666666644,4263.90909048,3737.93939357,4378.27272683,3144.48484817,5046.42424192,3334.06060573,4219.60606018,527.515151462,4434.42424198,3610.18181782,4217.03030261,12.3636363624,4881.57575709,3787.39393902,4518.90909046,144.242424228,42.0,42.0,?
2017-08-07 13:37:59.531416,4589.99999954,3882.18181779,4244.84848442,4158.30302989,3978.51515112,552.242424187,3951.72727233,152.48484847,4379.81818138,395.636363597,4511.69696925,226.666666644,4270.60606018,3737.93939357,4390.12121168,3144.48484817,5061.36363586,3334.06060573,4222.18181776,527.515151462,4433.39393895,3610.18181782,4221.15151473,12.3636363624,4875.39393891,3787.39393902,4511.69696925,144.242424228,42.0,42.0,?
2017-08-07 13:37:59.542000,4588.96969651,3882.18181779,4237.63636321,4166.54545413,3977.48484809,552.242424187,3953.27272688,152.48484847,4375.69696926,395.636363597,4508.09090864,226.666666644,4273.18181775,3737.93939357,4392.69696926,3144.48484817,5064.96969646,3334.06060573,4218.57575715,527.515151462,4431.33333289,3610.18181782,4217.54545412,12.3636363624,4869.21212073,3787.39393902,4511.18181773,144.242424228,42.0,42.0,?
2017-08-07 13:37:59.547487,4587.93939348,3882.18181779,4239.18181776,4166.54545413,3973.87878748,552.242424187,3950.18181779,152.48484847,4371.06060562,395.636363597,4504.99999955,226.666666644,4268.0303026,3737.93939357,4382.39393896,3144.48484817,5057.24242374,3334.06060573,4221.15151473,527.515151462,4430.81818138,3610.18181782,4215.48484806,12.3636363624,4869.72727224,3787.39393902,4511.69696925,135.999999986,42.0,42.0,?
2017-08-07 13:37:59.554757,4591.03030257,3882.18181779,4247.424242,4166.54545413,3978.51515112,548.121212066,3950.6969693,152.48484847,4372.60606017,395.636363597,4502.93939349,226.666666644,4267.51515109,3737.93939357,4383.42424199,3144.48484817,5062.9090904,3334.06060573,4231.96969655,527.515151462,4436.48484804,3610.18181782,4229.90909049,12.3636363624,4871.27272679,3787.39393902,4519.42424197,135.999999986,42.0,42.0,?
2017-08-07 13:37:59.564711,4597.21212075,3882.18181779,4251.54545412,4166.54545413,3983.66666627,548.121212066,3954.81818142,177.212121194,4373.12121168,395.636363597,4497.78787834,226.666666644,4272.66666624,3737.93939357,4395.78787835,3144.48484817,5072.18181767,3334.06060573,4235.06060564,527.515151462,4444.21212077,3610.18181782,4243.30302988,12.3636363624,4874.36363588,3787.39393902,4529.21212076,135.999999986,42.0,42.0,?
2017-08-07 13:37:59.571181,4599.27272681,3882.18181779,4251.03030261,4166.54545413,3984.18181778,548.121212066,3955.33333294,177.212121194,4368.99999956,395.636363597,4490.06060561,226.666666644,4270.09090866,3737.93939357,4394.75757532,3144.48484817,5073.2121207,3334.06060573,4234.03030261,527.515151462,4442.15151471,3610.18181782,4241.75757533,12.3636363624,4873.33333285,3787.39393902,4527.1515147,135.999999986,42.0,42.0,?
2017-08-07 13:37:59.578489,4595.15151469,3882.18181779,4249.48484806,4166.54545413,3982.12121172,548.121212066,3953.27272688,177.212121194,4366.42424199,395.636363597,4490.06060561,214.303030282,4264.424242,3737.93939357,4384.96969653,3144.48484817,5067.03030252,3334.06060573,4235.06060564,527.515151462,4435.45454501,3610.18181782,4236.60606018,12.3636363624,4866.63636315,3787.39393902,4524.06060561,135.999999986,42.0,42.0,?
2017-08-07 13:37:59.588036,4593.60606015,3882.18181779,4249.48484806,4166.54545413,3980.57575718,548.121212066,3952.24242385,177.212121194,4363.84848441,395.636363597,4494.69696925,214.303030282,4268.54545412,3729.69696932,4386.51515108,3144.48484817,5055.69696919,3334.06060573,4229.39393897,527.515151462,4435.45454501,3610.18181782,4236.60606018,12.3636363624,4867.66666618,3787.39393902,4524.57575712,135.999999986,42.0,42.0,?
