Timestamp,F3 Value,F3 Quality,FC5 Value,FC5 Quality,F7 Value,F7 Quality,T7 Value,T7 Quality,P7 Value,P7 Quality,O1 Value,O1 Quality,O2 Value,O2 Quality,P8 Value,P8 Quality,T8 Value,T8 Quality,F8 Value,F8 Quality,AF4 Value,AF4 Quality,FC6 Value,FC6 Quality,F4 Value,F4 Quality,AF3 Value,AF3 Quality,X Value,Y Value,Z Value
2017-08-07 13:38:57.565861,4509.63636319,0,4072.27272687,0,3873.42424204,0,3931.63636324,0,4257.7272723,0,4316.96969654,0,4188.18181776,0,4300.99999957,0,4921.75757527,0,4145.42424201,0,4375.69696926,0,4168.60606019,0.0,4795.54545407,0,4443.18181774,0,42.0,42.0,?
2017-08-07 13:38:57.568150,4533.8484844,0,4128.42424201,4207.75757534,3753.39393902,0,4595.15151469,0,4248.45454503,0,4406.09090865,0,4162.42424201,0,4271.12121169,0,4934.63636314,0,3838.90909053,0,4300.48484805,0,4106.27272686,0.0,4789.8787874,0,4325.72727229,0,42.0,42.0,?
2017-08-07 13:38:57.571026,4532.30302985,0,4129.96969656,4207.75757534,3762.66666629,0,4592.57575712,0,4246.90909048,0,4400.42424198,0,4151.09090868,0,4263.39393897,0,4921.75757527,0,3824.4848481,0,4291.7272723,0,4092.36363595,0.0,4778.54545407,0,4324.69696926,255.51515149,42.0,42.0,?
2017-08-07 13:38:57.574278,4525.60606015,0,4126.36363595,4207.75757534,3762.15151478,593.454545395,4586.90909045,0,4251.03030261,0,4411.75757532,0,4148.5151511,0,4262.36363594,0,4927.93939345,0,3822.42424204,0,4287.60606018,0,4088.75757535,0.0,4773.90909043,0,4323.15151472,255.51515149,42.0,42.0,?
2017-08-07 13:38:57.577517,4527.1515147,0,4123.78787838,4207.75757534,3756.48484811,593.454545395,4589.99999954,4.1212121208,4248.45454503,0,4414.33333289,0,4159.84848443,0,4269.57575715,0,4936.18181769,0,3832.72727234,0,4295.84848442,0,4100.09090868,0.0,4783.69696922,0,4325.72727229,255.51515149,42.0,42.0,?
2017-08-07 13:38:57.582127,4535.90909046,0,4131.5151511,4207.75757534,3760.60606023,593.454545395,4595.15151469,4.1212121208,4239.69696927,325.575757543,4407.12121168,0,4173.75757534,0,4275.75757533,0,4927.93939345,0,3834.7878784,0,4298.42424199,0,4104.2121208,0.0,4789.8787874,0,4330.36363593,255.51515149,42.0,42.0,?
2017-08-07 13:38:57.585220,4539.51515106,0,4136.66666625,4207.75757534,3768.33333296,593.454545395,4594.12121166,4.1212121208,4236.60606018,325.575757543,4405.57575714,247.272727248,4175.30302989,0,4279.87878745,0,4928.96969648,0,3835.81818143,0,4296.87878745,0,4108.33333292,0.0,4791.42424195,0,4331.39393896,255.51515149,42.0,42.0,?
2017-08-07 13:38:57.588095,4537.454545,0,4133.06060565,4207.75757534,3767.30302993,593.454545395,4590.51515106,4.1212121208,4239.18181776,325.575757543,4405.06060562,247.272727248,4161.39393898,3787.39393902,4277.81818139,0,4937.72727223,0,3847.15151477,0,4298.93939351,0,4113.99999959,0.0,4793.99999952,0,4331.90909048,255.51515149,42.0,42.0,?
2017-08-07 13:38:57.591268,4536.93939349,0,4135.63636322,4207.75757534,3764.72727235,593.454545395,4586.90909045,4.1212121208,4245.87878745,325.575757543,4408.15151471,247.272727248,4149.54545413,3787.39393902,4273.18181775,3202.18181786,4936.18181769,0,3851.7878784,0,4300.48484805,0,4108.84848444,0.0,4793.99999952,0,4336.0303026,255.51515149,42.0,42.0,?
2017-08-07 13:38:57.593994,4540.54545409,0,4142.84848443,4207.75757534,3767.30302993,593.454545395,4580.21212075,4.1212121208,4253.09090867,325.575757543,4413.81818138,247.272727248,4154.69696928,3787.39393902,4278.84848442,3202.18181786,4940.30302981,3329.93939361,3845.60606022,0,4304.09090866,0,4108.33333292,0.0,4797.60606013,0,4340.15151472,255.51515149,42.0,42.0,?
2017-08-07 13:38:57.597566,4544.1515147,0,4143.87878746,4207.75757534,3771.42424205,593.454545395,4577.12121166,4.1212121208,4241.75757533,325.575757543,4410.72727229,247.272727248,4160.87878746,3787.39393902,4286.06060563,3202.18181786,4951.12121163,3329.93939361,3851.7878784,519.272727221,4308.7272723,0,4115.03030262,0.0,4803.27272679,0,4339.12121169,255.51515149,42.0,42.0,?
2017-08-07 13:38:57.601251,4544.1515147,0,4141.30302989,4207.75757534,3772.45454508,593.454545395,4584.33333287,4.1212121208,4241.75757533,325.575757543,4402.99999956,247.272727248,4151.60606019,3787.39393902,4280.90909048,3202.18181786,4949.06060557,3329.93939361,3863.12121173,519.272727221,4310.27272684,3655.51515115,4111.93939353,0.0,4802.24242376,0,4336.54545411,255.51515149,42.0,42.0,?
2017-08-07 13:38:57.604089,4544.66666621,0,4144.39393898,4207.75757534,3772.96969659,593.454545395,4596.69696924,4.1212121208,4247.424242,325.575757543,4405.57575714,247.272727248,4141.30302989,3787.39393902,4273.69696927,3202.18181786,4944.42424193,3329.93939361,3866.21212083,519.272727221,4314.39393896,3655.51515115,4106.78787838,16.4848484832,4800.69696922,0,4340.66666623,255.51515149,42.0,42.0,?
2017-08-07 13:38:57.607021,4551.36363591,0,4150.57575716,4207.75757534,3777.60606023,593.454545395,4600.30302984,4.1212121208,4256.18181776,325.575757543,4411.2424238,247.272727248,4144.90909049,3787.39393902,4279.87878745,3202.18181786,4951.12121163,3329.93939361,3863.12121173,519.272727221,4321.09090866,3655.51515115,4104.72727232,16.4848484832,4809.96969649,3820.36363598,4350.45454502,255.51515149,42.0,42.0,?
2017-08-07 13:38:57.612128,4558.0606056,0,4155.2121208,4207.75757534,3784.30302992,593.454545395,4598.7575753,4.1212121208,4252.06060564,325.575757543,4410.72727229,247.272727248,4149.54545413,3787.39393902,4285.0303026,3202.18181786,4953.6969692,3329.93939361,3863.63636325,519.272727221,4323.66666623,3655.51515115,4098.03030262,16.4848484832,4817.69696922,3820.36363598,4357.66666623,255.51515149,42.0,42.0,?
2017-08-07 13:38:57.622674,4552.39393894,0,4154.69696928,4207.75757534,3782.75757538,593.454545395,4600.30302984,4.1212121208,4247.93939351,325.575757543,4410.21212077,247.272727248,4145.93939352,3787.39393902,4275.24242381,3202.18181786,4950.0909086,3329.93939361,3868.27272689,519.272727221,4322.6363632,3647.27272691,4090.30302989,16.4848484832,4807.39393891,3820.36363598,4354.06060563,255.51515149,42.0,42.0,?
2017-08-07 13:38:57.627983,4544.1515147,0,4153.66666625,4207.75757534,3776.5757572,593.454545395,4591.54545409,4.1212121208,4252.06060564,325.575757543,4410.72727229,247.272727248,4144.39393898,3787.39393902,4267.51515109,3202.18181786,4950.60606011,3329.93939361,3864.66666628,519.272727221,4320.57575714,3647.27272691,4082.57575717,24.7272727248,4793.48484801,3820.36363598,4346.3333329,255.51515149,42.0,42.0,?
2017-08-07 13:38:57.636727,4546.72727227,0,4155.72727231,4207.75757534,3776.5757572,593.454545395,4581.7575753,4.1212121208,4253.60606018,325.575757543,4411.75757532,247.272727248,4151.09090868,3787.39393902,4277.30302988,3202.18181786,4956.78787829,3329.93939361,3861.06060567,519.272727221,4323.66666623,3647.27272691,4081.03030262,24.7272727248,4793.99999952,3820.36363598,4347.87878744,255.51515149,42.0,42.0,?
2017-08-07 13:38:57.644001,4548.27272682,0,4157.27272686,4207.75757534,3778.63636326,593.454545395,4579.69696924,4.1212121208,4252.06060564,325.575757543,4418.96969653,247.272727248,4160.36363595,3787.39393902,4288.12121169,3202.18181786,4959.36363587,3329.93939361,3871.87878749,519.272727221,4325.72727229,3647.27272691,4087.72727232,24.7272727248,4799.66666619,3820.36363598,4351.99999956,255.51515149,42.0,42.0,?
2017-08-07 13:38:57.653201,4542.60606015,0,4157.78787837,4207.75757534,3773.99999962,593.454545395,4572.99999954,4.1212121208,4255.66666624,325.575757543,4426.69696925,247.272727248,4167.57575716,3787.39393902,4283.48484806,3202.18181786,4958.33333284,3329.93939361,3880.63636325,519.272727221,4324.18181775,3647.27272691,4090.81818141,24.7272727248,4800.1818177,3820.36363598,4345.81818138,255.51515149,42.0,42.0,?
2017-08-07 13:38:57.662050,4540.54545409,0,4157.78787837,4207.75757534,3771.42424205,593.454545395,4564.7575753,4.1212121208,4268.0303026,325.575757543,4429.27272683,247.272727248,4173.75757534,3787.39393902,4283.48484806,3202.18181786,4967.60606011,3329.93939361,3877.54545416,519.272727221,4323.66666623,3647.27272691,4087.2121208,24.7272727248,4799.15151467,3820.36363598,4341.18181775,255.51515149,42.0,42.0,?
2017-08-07 13:38:57.679812,4550.33333288,0,4156.75757534,4207.75757534,3782.24242386,593.454545395,4582.27272681,4.1212121208,4257.7272723,325.575757543,4419.48484804,247.272727248,4175.30302989,3787.39393902,4300.99999957,3202.18181786,4972.24242375,3329.93939361,3892.99999961,519.272727221,4331.39393896,3647.27272691,4092.87878747,24.7272727248,4810.484848,3820.36363598,4358.18181775,255.51515149,42.0,42.0,?
2017-08-07 13:38:57.685872,4544.1515147,0,4156.75757534,4207.75757534,3782.24242386,593.454545395,4582.27272681,4.1212121208,4251.03030261,325.575757543,4419.48484804,247.272727248,4175.30302989,3787.39393902,4300.99999957,3202.18181786,4972.24242375,3329.93939361,3892.99999961,519.272727221,4331.39393896,3647.27272691,4091.33333292,24.7272727248,4810.484848,3820.36363598,4358.18181775,255.51515149,42.0,42.0,?
2017-08-07 13:38:57.686342,4544.1515147,0,4139.24242383,4207.75757534,3768.33333296,593.454545395,4585.36363591,4.1212121208,4251.03030261,325.575757543,4418.96969653,247.272727248,4169.1212117,3787.39393902,4297.90909048,3202.18181786,4971.72727223,3329.93939361,3891.45454507,519.272727221,4328.81818139,3647.27272691,4091.33333292,24.7272727248,4806.36363588,3820.36363598,4355.09090866,255.51515149,42.0,42.0,?
2017-08-07 13:38:57.696640,4546.21212076,0,4133.06060565,4207.75757534,3765.75757538,593.454545395,4557.03030257,4.1212121208,4263.90909048,325.575757543,4431.33333289,247.272727248,4174.78787837,3787.39393902,4300.48484805,3202.18181786,4978.42424193,3329.93939361,3889.90909052,519.272727221,4336.0303026,3647.27272691,4098.54545414,24.7272727248,4816.15151467,3820.36363598,4357.15151472,255.51515149,42.0,42.0,?
2017-08-07 13:38:57.699001,4554.454545,0,4144.90909049,4207.75757534,3776.06060568,593.454545395,4516.8484844,4.1212121208,4281.93939351,325.575757543,4436.99999956,247.272727248,4183.54545413,3787.39393902,4303.06060563,3202.18181786,4979.96969647,3329.93939361,3902.27272688,519.272727221,4347.87878744,3647.27272691,4110.39393898,24.7272727248,4832.63636315,3820.36363598,4367.45454502,255.51515149,42.0,42.0,?
2017-08-07 13:38:57.708137,4554.454545,0,4154.18181777,4207.75757534,3780.1818178,593.454545395,4500.87878743,4.1212121208,4281.93939351,325.575757543,4433.90909047,247.272727248,4194.87878746,3787.39393902,4309.24242381,3202.18181786,4982.03030253,3329.93939361,3914.12121173,519.272727221,4348.90909047,3647.27272691,4110.39393898,24.7272727248,4836.75757527,3820.36363598,4371.06060562,255.51515149,42.0,42.0,?
2017-08-07 13:38:57.713987,4561.66666621,0,4161.90909049,4207.75757534,3783.27272689,593.454545395,4504.99999955,4.1212121208,4276.78787836,325.575757543,4440.09090865,247.272727248,4205.18181776,3787.39393902,4319.54545411,3202.18181786,4981.51515102,3329.93939361,3912.06060567,519.272727221,4351.48484805,3647.27272691,4110.39393898,24.7272727248,4840.36363588,3820.36363598,4375.69696926,255.51515149,42.0,42.0,?
2017-08-07 13:38:57.726564,4574.54545409,0,4173.24242383,4207.75757534,3794.09090871,593.454545395,4506.03030258,4.1212121208,4277.81818139,325.575757543,4443.69696925,247.272727248,4200.03030261,3787.39393902,4319.54545411,3202.18181786,4976.87878738,3329.93939361,3911.54545415,519.272727221,4357.66666623,3647.27272691,4110.9090905,24.7272727248,4847.06060558,3820.36363598,4386.51515108,255.51515149,42.0,42.0,?
2017-08-07 13:38:57.731411,4575.0606056,0,4174.78787837,4207.75757534,3799.24242386,593.454545395,4502.42424197,4.1212121208,4281.93939351,325.575757543,4435.96969653,247.272727248,4190.24242382,3787.39393902,4310.78787836,3202.18181786,4980.9999995,3329.93939361,3915.15151476,519.272727221,4359.72727229,3647.27272691,4111.42424201,24.7272727248,4846.54545406,3820.36363598,4392.18181774,255.51515149,42.0,42.0,?
2017-08-07 13:38:57.738064,4570.93939348,0,4171.69696928,4207.75757534,3790.48484811,593.454545395,4502.42424197,4.1212121208,4283.48484806,325.575757543,4434.42424198,247.272727248,4190.75757534,3787.39393902,4306.66666624,3202.18181786,4980.48484799,3329.93939361,3905.36363597,519.272727221,4360.75757532,3647.27272691,4102.66666626,24.7272727248,4844.484848,3820.36363598,4384.96969653,255.51515149,42.0,42.0,?
2017-08-07 13:38:57.745877,4563.72727227,0,4172.21212079,4207.75757534,3787.90909053,593.454545395,4502.42424197,4.1212121208,4284.51515109,325.575757543,4436.48484804,247.272727248,4191.78787837,3787.39393902,4309.24242381,3202.18181786,4969.66666617,3329.93939361,3895.06060567,519.272727221,4351.99999956,3647.27272691,4089.78787838,24.7272727248,4839.33333285,3820.36363598,4372.60606017,255.51515149,42.0,42.0,?
2017-08-07 13:38:57.753165,4561.66666621,0,4174.27272686,4207.75757534,3796.66666629,593.454545395,4501.39393894,4.1212121208,4285.0303026,325.575757543,4435.45454501,247.272727248,4192.8181814,3787.39393902,4311.30302987,3202.18181786,4967.60606011,3329.93939361,3903.30302991,519.272727221,4345.30302987,3647.27272691,4092.87878747,24.7272727248,4836.75757527,3820.36363598,4371.06060562,255.51515149,42.0,42.0,?
2017-08-07 13:38:57.762028,4571.96969651,0,4180.45454504,4207.75757534,3798.72727235,593.454545395,4502.42424197,4.1212121208,4285.0303026,325.575757543,4440.60606016,247.272727248,4198.99999958,3787.39393902,4313.87878745,3202.18181786,4979.45454496,3329.93939361,3914.12121173,519.272727221,4360.24242381,3647.27272691,4106.78787838,24.7272727248,4847.06060558,3820.36363598,4377.75757532,255.51515149,42.0,42.0,?
2017-08-07 13:38:57.769642,4576.09090863,0,4188.18181776,4207.75757534,3798.21212083,593.454545395,4500.36363591,4.1212121208,4294.81818139,325.575757543,4449.36363592,247.272727248,4207.24242382,3787.39393902,4320.06060563,3202.18181786,4990.27272677,3329.93939361,3919.7878784,519.272727221,4368.99999956,3647.27272691,4107.81818141,24.7272727248,4852.72727224,3820.36363598,4378.78787835,255.51515149,42.0,42.0,?
2017-08-07 13:38:57.776132,4577.63636318,0,4189.72727231,4207.75757534,3803.8787875,593.454545395,4500.36363591,4.1212121208,4300.99999957,325.575757543,4448.8484844,247.272727248,4215.48484806,3787.39393902,4326.24242381,3202.18181786,4989.75757526,3329.93939361,3922.87878749,519.272727221,4364.87878744,3647.27272691,4107.81818141,24.7272727248,4850.66666618,3820.36363598,4374.66666623,255.51515149,42.0,42.0,?
2017-08-07 13:38:57.787250,4582.27272681,0,4188.18181776,4207.75757534,3810.06060568,593.454545395,4499.8484844,4.1212121208,4296.36363593,325.575757543,4450.90909046,247.272727248,4220.63636321,3787.39393902,4331.90909048,3202.18181786,4993.87878738,3329.93939361,3923.393939,519.272727221,4366.9393935,3647.27272691,4117.60606019,24.7272727248,4853.24242376,3820.36363598,4375.69696926,255.51515149,42.0,42.0,?
2017-08-07 13:38:57.792563,4579.18181772,0,4188.18181776,4207.75757534,3811.09090871,593.454545395,4495.72727228,4.1212121208,4298.42424199,325.575757543,4463.78787834,247.272727248,4221.66666624,3787.39393902,4341.18181775,3202.18181786,5013.96969647,3329.93939361,3933.6969693,519.272727221,4370.54545411,3647.27272691,4124.81818141,24.7272727248,4858.39393891,3820.36363598,4377.75757532,255.51515149,42.0,42.0,?
2017-08-07 13:38:57.801622,4581.7575753,0,4190.75757534,4207.75757534,3810.06060568,593.454545395,4498.30302985,4.1212121208,4308.7272723,325.575757543,4466.36363592,247.272727248,4224.24242382,3787.39393902,4346.3333329,3202.18181786,5023.24242374,3329.93939361,3945.54545415,519.272727221,4364.87878744,3647.27272691,4125.33333292,24.7272727248,4864.06060557,3820.36363598,4380.84848441,255.51515149,42.0,42.0,?
2017-08-07 13:38:57.806858,4586.90909045,0,4195.39393897,4207.75757534,3810.57575719,593.454545395,4504.48484803,4.1212121208,4308.7272723,325.575757543,4458.12121168,247.272727248,4222.18181776,3787.39393902,4341.18181775,3202.18181786,5013.96969647,3329.93939361,3941.93939355,519.272727221,4354.57575714,3647.27272691,4126.87878747,24.7272727248,4866.12121163,3820.36363598,4385.99999956,255.51515149,42.0,42.0,?
2017-08-07 13:38:57.814930,4582.27272681,0,4198.99999958,4207.75757534,3816.24242386,593.454545395,4498.81818137,4.1212121208,4304.09090866,325.575757543,4457.60606016,247.272727248,4214.96969655,3787.39393902,4341.18181775,3202.18181786,5014.9999995,3329.93939361,3936.27272688,519.272727221,4346.84848441,3647.27272691,4127.9090905,24.7272727248,4862.51515103,3820.36363598,4387.54545411,255.51515149,42.0,42.0,?
2017-08-07 13:38:57.823751,4582.78787833,0,4200.03030261,4207.75757534,3819.84848447,593.454545395,4493.66666622,4.1212121208,4309.24242381,325.575757543,4463.78787834,247.272727248,4212.90909049,3787.39393902,4347.36363593,3202.18181786,5026.33333283,3329.93939361,3937.30302991,519.272727221,4344.27272684,3647.27272691,4121.72727232,24.7272727248,4859.42424194,3820.36363598,4386.51515108,255.51515149,42.0,42.0,?
2017-08-07 13:38:57.831627,4586.39393894,0,4201.06060564,4207.75757534,3814.69696932,593.454545395,4496.75757531,4.1212121208,4316.96969654,325.575757543,4467.90909046,247.272727248,4214.96969655,3787.39393902,4346.3333329,3202.18181786,5024.78787829,3329.93939361,3936.78787839,519.272727221,4345.81818138,3647.27272691,4115.03030262,24.7272727248,4853.75757527,3820.36363598,4384.96969653,255.51515149,42.0,42.0,?
2017-08-07 13:38:57.838855,4583.30302984,0,4200.54545413,4207.75757534,3815.72727235,593.454545395,4492.63636319,4.1212121208,4317.99999957,325.575757543,4472.5454541,247.272727248,4224.75757534,3787.39393902,4350.45454502,3202.18181786,5020.66666616,3329.93939361,3939.87878748,519.272727221,4343.75757532,3647.27272691,4120.18181777,24.7272727248,4849.63636315,3820.36363598,4389.60606017,255.51515149,42.0,42.0,?
2017-08-07 13:38:57.849889,4597.21212075,0,4204.15151473,4207.75757534,3826.54545416,593.454545395,4487.99999955,4.1212121208,4317.48484805,325.575757543,4478.21212076,247.272727248,4239.18181776,3787.39393902,4364.36363593,3202.18181786,5027.87878738,3329.93939361,3955.84848445,519.272727221,4358.18181775,3647.27272691,4137.18181777,24.7272727248,4870.75757527,3820.36363598,4405.57575714,255.51515149,42.0,42.0,?
2017-08-07 13:38:57.855969,4618.84848439,0,4211.87878746,4207.75757534,3835.30302992,593.454545395,4487.48484804,4.1212121208,4317.48484805,325.575757543,4479.24242379,247.272727248,4242.27272685,3787.39393902,4366.42424199,3202.18181786,5038.18181768,3329.93939361,3969.75757536,519.272727221,4383.9393935,3647.27272691,4147.99999959,24.7272727248,4898.06060557,3820.36363598,4419.48484804,255.51515149,42.0,42.0,?
2017-08-07 13:38:57.862242,4611.63636318,0,4209.8181814,4207.75757534,3835.81818143,593.454545395,4478.72727228,4.1212121208,4319.54545411,325.575757543,4477.69696925,247.272727248,4232.99999958,3787.39393902,4354.57575714,3202.18181786,5033.03030253,3329.93939361,3968.21212082,519.272727221,4379.30302987,3647.27272691,4141.30302989,24.7272727248,4891.36363587,3820.36363598,4416.90909047,255.51515149,42.0,42.0,?
2017-08-07 13:38:57.875902,4601.84848439,0,4205.18181776,4207.75757534,3832.21212083,593.454545395,4470.99999955,4.1212121208,4320.57575714,325.575757543,4475.12121167,247.272727248,4224.24242382,3787.39393902,4346.3333329,3202.18181786,5023.24242374,3329.93939361,3969.24242385,519.272727221,4364.87878744,3647.27272691,4136.15151474,24.7272727248,4876.93939345,3820.36363598,4412.27272683,255.51515149,42.0,42.0,?
2017-08-07 13:38:57.880880,4603.39393893,0,4204.66666625,4207.75757534,3832.21212083,593.454545395,4467.39393895,4.1212121208,4315.42424199,325.575757543,4469.96969652,247.272727248,4226.30302988,3787.39393902,4351.99999956,3202.18181786,5035.09090859,3329.93939361,3974.90909051,519.272727221,4365.90909047,3647.27272691,4141.30302989,24.7272727248,4876.93939345,3820.36363598,4413.30302986,255.51515149,42.0,42.0,?
2017-08-07 13:38:57.885803,4600.81818136,0,4205.69696928,4207.75757534,3831.1818178,593.454545395,4458.12121168,4.1212121208,4314.90909048,325.575757543,4472.5454541,247.272727248,4232.48484806,3787.39393902,4361.78787835,3202.18181786,5052.09090859,3329.93939361,3970.27272688,519.272727221,4364.36363593,3647.27272691,4139.75757534,24.7272727248,4873.33333285,3820.36363598,4410.72727229,255.51515149,42.0,42.0,?
2017-08-07 13:38:57.893202,4601.84848439,0,4208.27272685,4207.75757534,3831.1818178,593.454545395,4456.06060561,4.1212121208,4325.72727229,325.575757543,4480.27272682,247.272727248,4234.54545412,3787.39393902,4361.27272684,3202.18181786,5044.36363586,3329.93939361,3967.18181779,519.272727221,4362.81818138,3647.27272691,4133.06060565,24.7272727248,4870.75757527,3820.36363598,4411.2424238,255.51515149,42.0,42.0,?
2017-08-07 13:38:57.900982,4603.90909045,0,4209.8181814,4207.75757534,3834.27272689,593.454545395,4461.21212077,4.1212121208,4329.3333329,325.575757543,4477.18181773,247.272727248,4228.87878746,3787.39393902,4350.96969653,3202.18181786,5033.03030253,3329.93939361,3974.90909051,519.272727221,4367.96969653,3647.27272691,4137.18181777,24.7272727248,4875.90909042,3820.36363598,4416.90909047,255.51515149,42.0,42.0,?
2017-08-07 13:38:57.910824,4603.39393893,0,4208.27272685,4207.75757534,3833.75757537,593.454545395,4455.5454541,4.1212121208,4324.69696926,325.575757543,4466.36363592,247.272727248,4221.66666624,3787.39393902,4346.3333329,3202.18181786,5034.06060556,3329.93939361,3978.51515112,519.272727221,4371.06060562,3647.27272691,4143.36363595,24.7272727248,4876.93939345,3820.36363598,4415.87878744,255.51515149,42.0,42.0,?
2017-08-07 13:38:57.917272,4603.39393893,0,4211.87878746,4207.75757534,3833.24242386,593.454545395,4444.72727228,4.1212121208,4323.15151472,325.575757543,4468.93939349,247.272727248,4223.7272723,3787.39393902,4349.9393935,3202.18181786,5034.57575707,3329.93939361,3976.96969657,519.272727221,4373.6363632,3647.27272691,4141.30302989,24.7272727248,4877.45454497,3820.36363598,4412.78787835,255.51515149,42.0,42.0,?
2017-08-07 13:38:57.925660,4598.24242378,0,4219.09090867,4207.75757534,3836.33333295,593.454545395,4444.21212077,4.1212121208,4324.18181775,325.575757543,4481.81818137,247.272727248,4234.54545412,3787.39393902,4353.54545411,3202.18181786,5035.09090859,3329.93939361,3981.60606021,519.272727221,4372.09090865,3647.27272691,4139.75757534,24.7272727248,4878.99999951,3820.36363598,4413.30302986,255.51515149,42.0,42.0,?
2017-08-07 13:38:57.934456,4594.63636318,0,4219.09090867,4207.75757534,3834.27272689,593.454545395,4450.39393895,4.1212121208,4326.75757532,325.575757543,4485.42424198,247.272727248,4242.27272685,3787.39393902,4360.75757532,3202.18181786,5037.15151465,3329.93939361,3986.24242384,519.272727221,4363.84848441,3647.27272691,4139.75757534,24.7272727248,4868.1818177,3820.36363598,4409.18181774,255.51515149,42.0,42.0,?
2017-08-07 13:38:57.940778,4600.81818136,0,4217.03030261,4207.75757534,3831.1818178,593.454545395,4449.87878743,4.1212121208,4334.48484805,325.575757543,4483.36363592,247.272727248,4240.7272723,3787.39393902,4362.30302987,3202.18181786,5028.90909041,3329.93939361,3985.21212081,519.272727221,4362.81818138,3647.27272691,4135.12121171,24.7272727248,4863.54545406,3820.36363598,4407.12121168,255.51515149,42.0,42.0,?
2017-08-07 13:38:57.947997,4605.45454499,0,4219.60606018,4207.75757534,3839.42424204,593.454545395,4442.15151471,4.1212121208,4330.87878745,325.575757543,4480.27272682,247.272727248,4234.03030261,3787.39393902,4360.24242381,3202.18181786,5026.33333283,3329.93939361,3987.27272687,519.272727221,4366.9393935,3647.27272691,4133.06060565,24.7272727248,4875.90909042,3820.36363598,4415.36363592,255.51515149,42.0,42.0,?
2017-08-07 13:38:57.956568,4608.54545408,0,4222.69696927,4207.75757534,3844.06060568,593.454545395,4437.51515107,4.1212121208,4319.54545411,325.575757543,4478.21212076,247.272727248,4230.424242,3787.39393902,4363.3333329,3202.18181786,5041.78787828,3329.93939361,3988.81818142,519.272727221,4368.99999956,3647.27272691,4138.2121208,24.7272727248,4880.03030254,3820.36363598,4419.48484804,255.51515149,42.0,42.0,?
2017-08-07 13:38:57.965870,4606.99999954,0,4219.09090867,4207.75757534,3836.33333295,593.454545395,4435.96969653,4.1212121208,4326.24242381,325.575757543,4484.39393895,247.272727248,4243.81818139,3787.39393902,4365.90909047,3202.18181786,5049.51515101,3329.93939361,3983.15151475,519.272727221,4365.90909047,3647.27272691,4137.18181777,24.7272727248,4870.75757527,3820.36363598,4410.72727229,255.51515149,42.0,42.0,?
2017-08-07 13:38:57.972594,4597.72727227,0,4210.33333291,4207.75757534,3830.15151477,593.454545395,4431.33333289,4.1212121208,4337.57575714,325.575757543,4494.18181773,247.272727248,4262.36363594,3787.39393902,4366.9393935,3202.18181786,5043.33333283,3329.93939361,3983.66666627,519.272727221,4362.30302987,3647.27272691,4131.5151511,24.7272727248,4868.69696921,3820.36363598,4402.99999956,255.51515149,42.0,42.0,?
2017-08-07 13:38:57.979902,4597.72727227,0,4204.66666625,4207.75757534,3830.66666628,593.454545395,4428.75757531,4.1212121208,4334.48484805,325.575757543,4496.75757531,247.272727248,4261.84848442,3787.39393902,4370.54545411,3202.18181786,5044.36363586,3329.93939361,3988.81818142,519.272727221,4362.30302987,3647.27272691,4135.12121171,24.7272727248,4869.72727224,3820.36363598,4401.45454501,255.51515149,42.0,42.0,?
2017-08-07 13:38:57.988861,4597.21212075,0,4205.18181776,4207.75757534,3829.12121174,593.454545395,4425.66666622,4.1212121208,4329.84848442,325.575757543,4491.60606016,247.272727248,4255.66666624,3787.39393902,4369.51515108,3202.18181786,5045.39393889,3329.93939361,3985.21212081,519.272727221,4358.18181775,3647.27272691,4134.60606019,24.7272727248,4861.99999951,3820.36363598,4397.84848441,255.51515149,42.0,42.0,?
2017-08-07 13:38:57.995681,4596.18181772,0,4210.84848443,4207.75757534,3829.12121174,593.454545395,4428.75757531,4.1212121208,4331.39393896,325.575757543,4487.99999955,247.272727248,4250.51515109,3787.39393902,4365.90909047,3202.18181786,5039.72727222,3329.93939361,3982.63636324,519.272727221,4364.87878744,3647.27272691,4132.03030262,24.7272727248,4864.57575709,3820.36363598,4404.03030259,255.51515149,42.0,42.0,?
2017-08-07 13:38:58.002819,4609.0606056,0,4218.57575715,4207.75757534,3841.99999962,593.454545395,4437.51515107,4.1212121208,4331.90909048,325.575757543,4482.33333289,247.272727248,4242.27272685,3787.39393902,4369.51515108,3202.18181786,5042.3030298,3329.93939361,3997.57575718,519.272727221,4382.39393896,3647.27272691,4142.33333292,24.7272727248,4880.54545406,3820.36363598,4418.45454501,255.51515149,42.0,42.0,?
2017-08-07 13:38:58.012712,4618.33333287,3861.57575719,4224.24242382,4207.75757534,3851.27272689,593.454545395,4436.48484804,4.1212121208,4332.93939351,325.575757543,4482.33333289,247.272727248,4244.33333291,3787.39393902,4374.66666623,3202.18181786,5043.84848434,3329.93939361,4004.27272687,519.272727221,4388.57575714,3647.27272691,4153.15151474,24.7272727248,4884.66666618,3820.36363598,4418.96969653,255.51515149,42.0,42.0,?
2017-08-07 13:38:58.019399,4610.09090863,3861.57575719,4222.18181776,4215.99999958,3844.06060568,593.454545395,4430.30302986,4.1212121208,4336.54545411,325.575757543,4491.60606016,247.272727248,4254.63636321,3787.39393902,4373.12121168,3202.18181786,5033.03030253,3329.93939361,3993.45454506,519.272727221,4381.87878744,3647.27272691,4144.90909049,24.7272727248,4876.93939345,3820.36363598,4406.60606017,255.51515149,42.0,42.0,?
2017-08-07 13:38:58.025854,4598.7575753,3861.57575719,4211.36363594,4215.99999958,3836.84848446,593.454545395,4426.69696925,4.1212121208,4343.24242381,325.575757543,4486.96969652,247.272727248,4251.54545412,3787.39393902,4367.45454502,3202.18181786,5027.87878738,3329.93939361,3983.66666627,519.272727221,4372.09090865,3647.27272691,4134.09090868,24.7272727248,4869.21212073,3820.36363598,4399.90909047,255.51515149,42.0,42.0,?
2017-08-07 13:38:58.034561,4597.21212075,3861.57575719,4204.15151473,4215.99999958,3834.27272689,597.575757516,4424.63636319,4.1212121208,4345.81818138,325.575757543,4480.27272682,247.272727248,4253.09090867,3787.39393902,4368.48484805,3202.18181786,5032.51515101,3329.93939361,3982.63636324,519.272727221,4366.9393935,3647.27272691,4134.09090868,24.7272727248,4865.60606012,3820.36363598,4400.9393935,255.51515149,42.0,42.0,?
2017-08-07 13:38:58.042433,4599.27272681,3861.57575719,4204.15151473,4215.99999958,3834.27272689,597.575757516,4423.60606016,57.6969696912,4338.09090866,325.575757543,4489.03030258,247.272727248,4260.81818139,3787.39393902,4375.69696926,3202.18181786,5038.69696919,3329.93939361,3988.3030299,519.272727221,4371.57575714,3647.27272691,4137.18181777,24.7272727248,4867.66666618,3820.36363598,4403.51515107,255.51515149,42.0,42.0,?
2017-08-07 13:38:58.051960,4603.90909045,3861.57575719,4205.18181776,4215.99999958,3838.39393901,597.575757516,4422.57575713,57.6969696912,4330.87878745,313.212121181,4490.06060561,247.272727248,4245.87878745,3787.39393902,4370.03030259,3202.18181786,5039.21212071,3329.93939361,3992.42424203,519.272727221,4380.84848441,3647.27272691,4138.72727231,24.7272727248,4875.39393891,3820.36363598,4407.12121168,255.51515149,42.0,42.0,?
2017-08-07 13:38:58.058953,4609.0606056,3861.57575719,4204.66666625,4215.99999958,3840.96969659,597.575757516,4417.9393935,57.6969696912,4332.93939351,313.212121181,4477.18181773,259.63636361,4226.8181814,3787.39393902,4358.69696926,3202.18181786,5035.6060601,3329.93939361,3998.09090869,519.272727221,4382.39393896,3647.27272691,4143.36363595,24.7272727248,4876.93939345,3820.36363598,4411.75757532,255.51515149,42.0,42.0,?
2017-08-07 13:38:58.065134,4609.57575711,3861.57575719,4205.18181776,4215.99999958,3841.4848481,597.575757516,4412.27272683,57.6969696912,4331.90909048,313.212121181,4475.12121167,259.63636361,4231.96969655,3787.39393902,4364.36363593,3202.18181786,5037.15151465,3329.93939361,4005.81818142,519.272727221,4382.39393896,3647.27272691,4151.09090868,24.7272727248,4872.81818133,3820.36363598,4416.39393895,255.51515149,42.0,42.0,?
2017-08-07 13:38:58.072728,4610.09090863,3861.57575719,4206.21212079,4215.99999958,3843.03030265,597.575757516,4408.15151471,57.6969696912,4327.27272684,313.212121181,4478.21212076,259.63636361,4242.27272685,3787.39393902,4371.57575714,3202.18181786,5041.27272677,3329.93939361,4008.39393899,519.272727221,4398.87878744,3647.27272691,4153.66666625,24.7272727248,4876.42424194,3820.36363598,4413.30302986,255.51515149,42.0,42.0,?
2017-08-07 13:38:58.081918,4604.93939348,3861.57575719,4203.1212117,4215.99999958,3839.42424204,597.575757516,4397.84848441,57.6969696912,4328.30302987,313.212121181,4474.60606016,259.63636361,4241.75757533,3787.39393902,4366.42424199,3202.18181786,5036.12121162,3338.18181785,4005.3030299,519.272727221,4411.2424238,3647.27272691,4149.54545413,24.7272727248,4878.99999951,3820.36363598,4406.09090865,255.51515149,42.0,42.0,?
2017-08-07 13:38:58.088856,4597.21212075,3861.57575719,4196.93939352,4215.99999958,3832.21212083,597.575757516,4382.39393896,57.6969696912,4325.72727229,313.212121181,4477.69696925,259.63636361,4237.63636321,3787.39393902,4360.24242381,3202.18181786,5028.39393889,3338.18181785,4008.90909051,511.030302979,4409.18181774,3647.27272691,4147.48484807,24.7272727248,4876.93939345,3820.36363598,4406.60606017,255.51515149,42.0,42.0,?
2017-08-07 13:38:58.097239,4600.81818136,3861.57575719,4189.72727231,4215.99999958,3829.12121174,597.575757516,4374.15151471,57.6969696912,4318.51515108,313.212121181,4478.21212076,259.63636361,4232.48484806,3787.39393902,4356.12121169,3202.18181786,5023.75757526,3338.18181785,4015.09090869,511.030302979,4410.21212077,3647.27272691,4143.87878746,24.7272727248,4878.99999951,3820.36363598,4407.6363632,255.51515149,42.0,42.0,?
2017-08-07 13:38:58.105786,4605.96969651,3861.57575719,4188.18181776,4215.99999958,3830.15151477,597.575757516,4374.66666623,57.6969696912,4321.60606017,313.212121181,4476.1515147,259.63636361,4235.06060564,3787.39393902,4358.18181775,3202.18181786,5020.66666616,3338.18181785,4011.48484808,511.030302979,4409.69696926,3647.27272691,4140.78787837,20.606060604,4882.60606012,3820.36363598,4407.6363632,255.51515149,42.0,42.0,?
2017-08-07 13:38:58.112417,4603.90909045,3861.57575719,4189.21212079,4215.99999958,3828.60606022,597.575757516,4374.15151471,57.6969696912,4328.81818139,313.212121181,4480.27272682,259.63636361,4242.27272685,3787.39393902,4362.81818138,3202.18181786,5019.12121162,3338.18181785,4009.42424202,511.030302979,4407.12121168,3647.27272691,4143.36363595,20.606060604,4881.06060557,3812.12121174,4408.15151471,255.51515149,42.0,42.0,?
2017-08-07 13:38:58.121271,4600.81818136,3861.57575719,4187.15151473,4215.99999958,3822.93939356,597.575757516,4364.87878744,57.6969696912,4325.21212078,313.212121181,4480.78787834,259.63636361,4241.75757533,3787.39393902,4362.81818138,3202.18181786,5017.57575707,3338.18181785,4014.57575717,519.272727221,4407.6363632,3647.27272691,4140.78787837,20.606060604,4875.39393891,3812.12121174,4406.09090865,255.51515149,42.0,42.0,?
2017-08-07 13:38:58.127882,4598.24242378,3861.57575719,4186.63636322,4215.99999958,3820.8787875,597.575757516,4351.48484805,57.6969696912,4324.18181775,313.212121181,4479.24242379,259.63636361,4244.84848442,3787.39393902,4365.90909047,3202.18181786,5024.78787829,3338.18181785,4017.66666626,519.272727221,4407.12121168,3655.51515115,4139.24242383,20.606060604,4872.81818133,3812.12121174,4402.48484804,255.51515149,42.0,42.0,?
2017-08-07 13:38:58.136848,4597.21212075,3861.57575719,4187.66666625,4215.99999958,3826.03030265,597.575757516,4339.12121169,57.6969696912,4328.81818139,313.212121181,4480.27272682,259.63636361,4249.99999958,3787.39393902,4369.51515108,3202.18181786,5039.21212071,3338.18181785,4020.24242384,519.272727221,4406.60606017,3655.51515115,4141.8181814,20.606060604,4874.87878739,3812.12121174,4399.39393895,255.51515149,42.0,42.0,?
2017-08-07 13:38:58.144641,4599.78787833,3861.57575719,4189.21212079,4215.99999958,3830.66666628,597.575757516,4328.81818139,57.6969696912,4325.21212078,313.212121181,4480.78787834,259.63636361,4248.96969654,3787.39393902,4366.42424199,3202.18181786,5040.24242374,3338.18181785,4023.33333293,519.272727221,4407.12121168,3655.51515115,4137.69696928,20.606060604,4877.45454497,3812.12121174,4397.33333289,255.51515149,42.0,42.0,?
2017-08-07 13:38:58.150748,4602.87878742,3861.57575719,4190.24242382,4215.99999958,3830.66666628,597.575757516,4323.15151472,57.6969696912,4328.30302987,313.212121181,4481.81818137,259.63636361,4249.99999958,3787.39393902,4366.9393935,3202.18181786,5034.57575707,3338.18181785,4020.75757536,519.272727221,4408.15151471,3655.51515115,4134.60606019,20.606060604,4877.45454497,3812.12121174,4405.57575714,255.51515149,42.0,42.0,?
2017-08-07 13:38:58.158840,4601.84848439,3861.57575719,4191.78787837,4215.99999958,3832.72727234,597.575757516,4320.57575714,57.6969696912,4339.6363632,313.212121181,4481.30302985,259.63636361,4256.69696927,3787.39393902,4376.21212077,3202.18181786,5041.27272677,3338.18181785,4022.3030299,519.272727221,4406.60606017,3655.51515115,4139.24242383,20.606060604,4876.93939345,3812.12121174,4417.42424198,255.51515149,42.0,42.0,?
2017-08-07 13:38:58.168631,4599.78787833,3861.57575719,4192.8181814,4215.99999958,3834.27272689,597.575757516,4321.60606017,57.6969696912,4336.54545411,313.212121181,4481.30302985,259.63636361,4256.18181776,3787.39393902,4377.2424238,3202.18181786,5039.21212071,3338.18181785,4030.54545414,519.272727221,4408.66666623,3655.51515115,4141.30302989,20.606060604,4881.57575709,3812.12121174,4415.36363592,255.51515149,42.0,42.0,?
2017-08-07 13:38:58.174742,4601.33333287,3861.57575719,4189.21212079,4215.99999958,3830.66666628,597.575757516,4323.66666623,57.6969696912,4325.72727229,313.212121181,4483.87878743,259.63636361,4244.33333291,3787.39393902,4372.09090865,3202.18181786,5026.33333283,3338.18181785,4030.54545414,519.272727221,4413.30302986,3655.51515115,4137.18181777,20.606060604,4886.21212072,3812.12121174,4412.27272683,255.51515149,42.0,42.0,?
2017-08-07 13:38:58.183770,4599.78787833,3861.57575719,4186.63636322,4215.99999958,3832.72727234,597.575757516,4322.12121169,57.6969696912,4329.84848442,313.212121181,4480.27272682,259.63636361,4241.24242382,3787.39393902,4380.3333329,3202.18181786,5031.9999995,3338.18181785,4024.87878748,519.272727221,4410.21212077,3655.51515115,4135.12121171,20.606060604,4881.06060557,3812.12121174,4412.78787835,255.51515149,42.0,42.0,?
2017-08-07 13:38:58.192704,4598.24242378,3861.57575719,4188.18181776,4215.99999958,3839.42424204,597.575757516,4321.09090866,57.6969696912,4339.12121169,313.212121181,4478.72727228,259.63636361,4247.424242,3787.39393902,4384.45454502,3202.18181786,5040.75757525,3338.18181785,4024.87878748,519.272727221,4408.66666623,3655.51515115,4132.03030262,20.606060604,4875.39393891,3812.12121174,4412.27272683,255.51515149,42.0,42.0,?
2017-08-07 13:38:58.198198,4600.30302984,3861.57575719,4190.24242382,4215.99999958,3840.96969659,597.575757516,4322.6363632,57.6969696912,4338.60606017,313.212121181,4487.99999955,259.63636361,4251.03030261,3787.39393902,4374.15151471,3202.18181786,5033.03030253,3338.18181785,4021.78787839,519.272727221,4412.27272683,3655.51515115,4126.36363595,20.606060604,4880.54545406,3812.12121174,4414.33333289,255.51515149,42.0,42.0,?
2017-08-07 13:38:58.205743,4600.81818136,3861.57575719,4185.60606019,4215.99999958,3840.45454507,597.575757516,4318.51515108,57.6969696912,4331.90909048,313.212121181,4481.81818137,259.63636361,4245.87878745,3787.39393902,4367.45454502,3202.18181786,5025.3030298,3338.18181785,4014.06060566,519.272727221,4411.75757532,3655.51515115,4124.30302989,20.606060604,4880.54545406,3812.12121174,4414.33333289,255.51515149,42.0,42.0,?
2017-08-07 13:38:58.217503,4596.69696924,3861.57575719,4175.30302989,4215.99999958,3841.4848481,597.575757516,4312.84848442,57.6969696912,4327.78787836,313.212121181,4463.78787834,259.63636361,4238.66666624,3787.39393902,4366.9393935,3202.18181786,5023.24242374,3338.18181785,4012.51515111,519.272727221,4409.18181774,3655.51515115,4124.30302989,20.606060604,4868.1818177,3812.12121174,4410.72727229,255.51515149,42.0,42.0,?
2017-08-07 13:38:58.221828,4596.69696924,3861.57575719,4171.18181776,4215.99999958,3842.51515113,597.575757516,4308.7272723,57.6969696912,4327.78787836,313.212121181,4470.99999955,259.63636361,4236.09090867,3787.39393902,4365.39393896,3202.18181786,5024.27272677,3338.18181785,4016.12121172,519.272727221,4408.15151471,3655.51515115,4124.30302989,20.606060604,4863.03030254,3812.12121174,4413.30302986,255.51515149,42.0,42.0,?
2017-08-07 13:38:58.229874,4595.66666621,3861.57575719,4170.15151473,4215.99999958,3843.03030265,597.575757516,4303.06060563,57.6969696912,4326.75757532,313.212121181,4480.78787834,259.63636361,4237.1212117,3787.39393902,4365.39393896,3202.18181786,5025.81818132,3338.18181785,4016.12121172,519.272727221,4410.21212077,3655.51515115,4121.72727232,20.606060604,4868.1818177,3812.12121174,4418.96969653,255.51515149,42.0,42.0,?
2017-08-07 13:38:58.237296,4591.54545409,3861.57575719,4163.45454504,4215.99999958,3841.4848481,597.575757516,4294.30302987,57.6969696912,4322.6363632,313.212121181,4469.45454501,259.63636361,4233.51515109,3787.39393902,4360.75757532,3202.18181786,5018.09090859,3338.18181785,4009.42424202,519.272727221,4417.42424198,3655.51515115,4121.2121208,20.606060604,4864.06060557,3812.12121174,4416.90909047,255.51515149,42.0,42.0,?
2017-08-07 13:38:58.245577,4583.30302984,3861.57575719,4152.12121171,4215.99999958,3832.72727234,597.575757516,4288.12121169,57.6969696912,4315.93939351,313.212121181,4459.15151471,259.63636361,4223.7272723,3787.39393902,4350.96969653,3202.18181786,5009.33333283,3338.18181785,4003.24242384,519.272727221,4421.5454541,3655.51515115,4115.03030262,20.606060604,4850.15151467,3812.12121174,4414.33333289,255.51515149,42.0,42.0,?
2017-08-07 13:38:58.253307,4582.78787833,3861.57575719,4144.39393898,4215.99999958,3829.63636325,597.575757516,4286.57575715,57.6969696912,4311.30302987,313.212121181,4460.69696925,259.63636361,4218.06060564,3787.39393902,4350.96969653,3202.18181786,5008.81818132,3338.18181785,4006.33333293,519.272727221,4429.78787834,3655.51515115,4110.39393898,20.606060604,4848.09090861,3812.12121174,4419.99999956,255.51515149,42.0,42.0,?
2017-08-07 13:38:58.260929,4581.24242378,3861.57575719,4141.8181814,4215.99999958,3835.81818143,597.575757516,4285.0303026,57.6969696912,4317.48484805,313.212121181,4459.66666622,259.63636361,4219.60606018,3787.39393902,4354.06060563,3202.18181786,5009.33333283,3338.18181785,4011.9999996,519.272727221,4436.99999956,3655.51515115,4115.54545413,20.606060604,4854.7878783,3812.12121174,4428.2424238,255.51515149,42.0,42.0,?
2017-08-07 13:38:58.274058,4567.33333288,3861.57575719,4133.06060565,4215.99999958,3835.81818143,597.575757516,4279.36363594,57.6969696912,4322.6363632,313.212121181,4460.69696925,259.63636361,4225.78787837,3787.39393902,4346.3333329,3202.18181786,5008.81818132,3338.18181785,4008.39393899,519.272727221,4432.36363592,3655.51515115,4115.03030262,20.606060604,4850.15151467,3812.12121174,4416.90909047,255.51515149,42.0,42.0,?
2017-08-07 13:38:58.278477,4558.57575712,3861.57575719,4125.84848444,4215.99999958,3828.09090871,597.575757516,4274.21212078,57.6969696912,4320.57575714,313.212121181,4472.03030258,259.63636361,4233.51515109,3787.39393902,4347.36363593,3202.18181786,5013.96969647,3338.18181785,4006.33333293,519.272727221,4431.33333289,3655.51515115,4110.9090905,20.606060604,4847.57575709,3812.12121174,4385.48484805,255.51515149,42.0,42.0,?
2017-08-07 13:38:58.286028,4566.81818136,3861.57575719,4133.06060565,4215.99999958,3829.12121174,597.575757516,4275.75757533,57.6969696912,4325.21212078,313.212121181,4480.78787834,259.63636361,4238.15151473,3787.39393902,4360.24242381,3202.18181786,5021.18181768,3338.18181785,4018.18181778,519.272727221,4444.72727228,3655.51515115,4117.09090868,20.606060604,4857.87878739,3812.12121174,4378.27272683,255.51515149,42.0,42.0,?
2017-08-07 13:38:58.292557,4577.12121166,3861.57575719,4143.36363595,4215.99999958,3839.42424204,597.575757516,4276.78787836,57.6969696912,4328.81818139,313.212121181,4473.57575713,259.63636361,4241.24242382,3787.39393902,4362.81818138,3202.18181786,5024.78787829,3338.18181785,4030.03030263,519.272727221,4458.63636319,3655.51515115,4130.48484807,20.606060604,4870.24242376,3812.12121174,4398.87878744,255.51515149,42.0,42.0,?
2017-08-07 13:38:58.300314,4576.09090863,3861.57575719,4143.36363595,4215.99999958,3843.03030265,597.575757516,4271.63636321,57.6969696912,4321.09090866,313.212121181,4459.66666622,259.63636361,4243.30302988,3787.39393902,4355.60606017,3202.18181786,5023.75757526,3338.18181785,4031.06060566,519.272727221,4460.69696925,3655.51515115,4134.09090868,20.606060604,4868.1818177,3812.12121174,4406.60606017,255.51515149,42.0,42.0,?
2017-08-07 13:38:58.309531,4571.454545,3861.57575719,4141.30302989,4215.99999958,3835.81818143,597.575757516,4266.99999957,57.6969696912,4316.45454502,313.212121181,4458.63636319,259.63636361,4237.1212117,3787.39393902,4360.24242381,3202.18181786,5016.54545404,3338.18181785,4026.42424202,519.272727221,4454.51515107,3655.51515115,4128.93939353,20.606060604,4864.06060557,3812.12121174,4395.78787835,255.51515149,42.0,42.0,?
2017-08-07 13:38:58.321113,4565.27272682,3861.57575719,4139.24242383,4215.99999958,3827.57575719,597.575757516,4257.21212079,57.6969696912,4320.06060563,313.212121181,4464.81818137,259.63636361,4229.90909049,3787.39393902,4366.42424199,3202.18181786,5008.81818132,3338.18181785,4022.3030299,519.272727221,4449.36363592,3655.51515115,4126.36363595,20.606060604,4864.06060557,3812.12121174,4388.06060562,255.51515149,42.0,42.0,?
2017-08-07 13:38:58.326274,4558.0606056,3861.57575719,4134.60606019,4215.99999958,3824.4848481,597.575757516,4245.87878745,57.6969696912,4320.06060563,313.212121181,4464.30302986,259.63636361,4234.03030261,3787.39393902,4359.72727229,3202.18181786,5008.3030298,3338.18181785,4016.63636323,519.272727221,4443.18181774,3655.51515115,4122.24242383,20.606060604,4854.7878783,3812.12121174,4385.48484805,255.51515149,42.0,42.0,?
2017-08-07 13:38:58.331622,4558.0606056,3861.57575719,4137.69696928,4215.99999958,3827.06060568,597.575757516,4245.87878745,57.6969696912,4315.93939351,313.212121181,4462.75757531,259.63636361,4236.09090867,3787.39393902,4353.54545411,3202.18181786,5009.84848435,3338.18181785,4014.06060566,519.272727221,4441.63636319,3655.51515115,4115.03030262,20.606060604,4846.03030255,3812.12121174,4384.45454502,255.51515149,42.0,42.0,?
2017-08-07 13:38:58.339335,4563.21212076,3861.57575719,4144.39393898,4215.99999958,3831.69696931,597.575757516,4247.93939351,57.6969696912,4311.81818139,313.212121181,4462.75757531,259.63636361,4230.424242,3787.39393902,4356.12121169,3202.18181786,5005.72727223,3338.18181785,4019.21212081,519.272727221,4445.2424238,3655.51515115,4121.2121208,20.606060604,4850.15151467,3812.12121174,4385.99999956,255.51515149,42.0,42.0,?
2017-08-07 13:38:58.347124,4563.21212076,3861.57575719,4141.30302989,4215.99999958,3832.21212083,597.575757516,4243.30302988,57.6969696912,4314.90909048,313.212121181,4464.81818137,259.63636361,4234.54545412,3787.39393902,4362.30302987,3202.18181786,5008.81818132,3338.18181785,4027.45454505,519.272727221,4446.78787834,3655.51515115,4136.15151474,20.606060604,4854.7878783,3812.12121174,4383.9393935,255.51515149,42.0,42.0,?
2017-08-07 13:38:58.355959,4564.7575753,3861.57575719,4144.39393898,4215.99999958,3832.21212083,597.575757516,4242.78787836,57.6969696912,4319.0303026,313.212121181,4467.90909046,259.63636361,4244.84848442,3787.39393902,4371.06060562,3202.18181786,5020.66666616,3338.18181785,4032.09090869,519.272727221,4450.39393895,3655.51515115,4138.2121208,20.606060604,4854.7878783,3812.12121174,4387.03030259,255.51515149,42.0,42.0,?
2017-08-07 13:38:58.363578,4569.90909045,3861.57575719,4152.63636322,4215.99999958,3837.36363598,597.575757516,4245.87878745,57.6969696912,4315.93939351,313.212121181,4464.81818137,259.63636361,4243.30302988,3787.39393902,4376.72727229,3202.18181786,5027.87878738,3338.18181785,4036.21212081,519.272727221,4452.45454501,3655.51515115,4136.66666625,20.606060604,4860.96969648,3812.12121174,4396.81818138,255.51515149,42.0,42.0,?
2017-08-07 13:38:58.374140,4570.93939348,3861.57575719,4148.5151511,4215.99999958,3840.45454507,597.575757516,4243.30302988,57.6969696912,4320.06060563,313.212121181,4461.21212077,259.63636361,4234.54545412,3787.39393902,4373.6363632,3202.18181786,5026.84848435,3338.18181785,4039.3030299,519.272727221,4452.45454501,3655.51515115,4143.87878746,20.606060604,4865.0909086,3812.12121174,4396.81818138,255.51515149,42.0,42.0,?
2017-08-07 13:38:58.379106,4567.84848439,3861.57575719,4142.33333292,4215.99999958,3837.36363598,597.575757516,4238.15151473,57.6969696912,4327.78787836,313.212121181,4463.78787834,259.63636361,4234.54545412,3787.39393902,4374.15151471,3202.18181786,5021.69696919,3338.18181785,4033.63636323,519.272727221,4449.87878743,3655.51515115,4144.39393898,20.606060604,4858.90909042,3812.12121174,4388.57575714,255.51515149,42.0,42.0,?
2017-08-07 13:38:58.387631,4567.33333288,3861.57575719,4145.93939352,4215.99999958,3838.39393901,597.575757516,4235.57575715,57.6969696912,4323.66666623,313.212121181,4465.33333289,259.63636361,4238.15151473,3787.39393902,4376.72727229,3202.18181786,5017.57575707,3338.18181785,4025.90909051,519.272727221,4442.15151471,3655.51515115,4132.54545413,20.606060604,4850.15151467,3812.12121174,4388.06060562,255.51515149,42.0,42.0,?
2017-08-07 13:38:58.394367,4568.36363591,3861.57575719,4148.5151511,4215.99999958,3840.45454507,597.575757516,4227.84848443,57.6969696912,4316.96969654,313.212121181,4465.33333289,259.63636361,4235.06060564,3787.39393902,4368.99999956,3202.18181786,5017.06060556,3338.18181785,4028.48484808,519.272727221,4444.21212077,3655.51515115,4130.99999959,20.606060604,4850.15151467,3812.12121174,4389.09090865,255.51515149,42.0,42.0,?
2017-08-07 13:38:58.405429,4567.84848439,3861.57575719,4147.99999959,4215.99999958,3837.36363598,597.575757516,4215.48484806,57.6969696912,4320.57575714,313.212121181,4466.87878743,259.63636361,4226.30302988,3787.39393902,4365.39393896,3202.18181786,5013.96969647,3338.18181785,4034.15151475,519.272727221,4448.33333289,3655.51515115,4142.84848443,20.606060604,4855.30302982,3812.12121174,4384.96969653,255.51515149,42.0,42.0,?
2017-08-07 13:38:58.410360,4565.27272682,3861.57575719,4152.63636322,4215.99999958,3835.81818143,597.575757516,4211.36363594,57.6969696912,4327.78787836,313.212121181,4465.33333289,259.63636361,4218.57575715,3787.39393902,4367.45454502,3202.18181786,5004.18181768,3338.18181785,4029.51515111,519.272727221,4442.66666622,3655.51515115,4142.84848443,20.606060604,4854.27272679,3812.12121174,4385.99999956,255.51515149,42.0,42.0,?
2017-08-07 13:38:58.416798,4563.21212076,3861.57575719,4154.69696928,4215.99999958,3838.39393901,597.575757516,4215.99999958,57.6969696912,4324.18181775,313.212121181,4464.30302986,259.63636361,4218.57575715,3787.39393902,4362.81818138,3202.18181786,4994.90909041,3338.18181785,4020.75757536,519.272727221,4436.99999956,3655.51515115,4128.93939353,20.606060604,4850.66666618,3812.12121174,4384.45454502,255.51515149,42.0,42.0,?
2017-08-07 13:38:58.425400,4560.12121167,3861.57575719,4146.96969656,4215.99999958,3835.30302992,597.575757516,4209.8181814,57.6969696912,4315.93939351,313.212121181,4464.30302986,259.63636361,4219.60606018,3787.39393902,4360.24242381,3202.18181786,4997.48484799,3338.18181785,4022.81818142,519.272727221,4431.33333289,3655.51515115,4123.27272686,20.606060604,4849.12121164,3812.12121174,4374.15151471,255.51515149,42.0,42.0,?
2017-08-07 13:38:58.432647,4558.57575712,3861.57575719,4142.84848443,4215.99999958,3830.15151477,597.575757516,4200.03030261,57.6969696912,4313.87878745,313.212121181,4458.63636319,259.63636361,4215.99999958,3787.39393902,4360.75757532,3202.18181786,5004.6969692,3338.18181785,4028.9999996,519.272727221,4430.30302986,3655.51515115,4127.9090905,20.606060604,4849.12121164,3812.12121174,4374.15151471,255.51515149,42.0,42.0,?
2017-08-07 13:38:58.447280,4560.63636318,3861.57575719,4150.06060565,4215.99999958,3833.24242386,597.575757516,4198.99999958,57.6969696912,4315.93939351,313.212121181,4453.99999955,259.63636361,4216.51515109,3787.39393902,4356.12121169,3202.18181786,5002.63636314,3338.18181785,4033.63636323,519.272727221,4437.51515107,3655.51515115,4134.09090868,20.606060604,4851.1818177,3812.12121174,4383.9393935,255.51515149,42.0,42.0,?
2017-08-07 13:38:58.450510,4562.69696924,3861.57575719,4154.69696928,4215.99999958,3836.33333295,597.575757516,4194.36363594,57.6969696912,4316.45454502,313.212121181,4459.15151471,259.63636361,4212.90909049,3787.39393902,4356.12121169,3202.18181786,5003.66666617,3338.18181785,4045.48484808,519.272727221,4434.9393935,3655.51515115,4138.2121208,20.606060604,4857.36363588,3812.12121174,4384.45454502,255.51515149,42.0,42.0,?
2017-08-07 13:38:58.458586,4562.69696924,3861.57575719,4154.69696928,4215.99999958,3836.33333295,597.575757516,4194.36363594,57.6969696912,4316.45454502,313.212121181,4459.15151471,259.63636361,4212.90909049,3787.39393902,4356.12121169,3202.18181786,5003.66666617,3338.18181785,4045.48484808,519.272727221,4434.9393935,3655.51515115,4138.2121208,20.606060604,4857.36363588,3812.12121174,4384.45454502,255.51515149,42.0,42.0,?
2017-08-07 13:38:58.476924,4563.72727227,3861.57575719,4157.78787837,4215.99999958,3837.36363598,597.575757516,4199.5151511,57.6969696912,4320.57575714,313.212121181,4463.78787834,259.63636361,4216.51515109,3787.39393902,4354.57575714,3202.18181786,4989.24242374,3338.18181785,4043.42424202,519.272727221,4434.42424198,3655.51515115,4133.57575716,20.606060604,4853.75757527,3812.12121174,4381.36363593,255.51515149,42.0,42.0,?
2017-08-07 13:38:58.477213,4563.72727227,3861.57575719,4157.78787837,4215.99999958,3837.36363598,597.575757516,4199.5151511,57.6969696912,4320.57575714,313.212121181,4463.78787834,259.63636361,4216.51515109,3787.39393902,4354.57575714,3202.18181786,4989.24242374,3338.18181785,4043.42424202,519.272727221,4434.42424198,3655.51515115,4133.57575716,20.606060604,4853.75757527,3812.12121174,4381.36363593,255.51515149,42.0,42.0,?
2017-08-07 13:38:58.479582,4560.12121167,3861.57575719,4155.72727231,4215.99999958,3829.63636325,597.575757516,4194.36363594,57.6969696912,4318.51515108,313.212121181,4461.21212077,259.63636361,4209.8181814,3787.39393902,4355.09090866,3202.18181786,4990.78787829,3338.18181785,4045.48484808,519.272727221,4430.81818138,3655.51515115,4134.60606019,20.606060604,4849.63636315,3812.12121174,4374.15151471,255.51515149,42.0,42.0,?
2017-08-07 13:38:58.489787,4561.1515147,3861.57575719,4155.72727231,4215.99999958,3832.21212083,597.575757516,4189.21212079,57.6969696912,4322.12121169,313.212121181,4462.2424238,259.63636361,4210.33333291,3787.39393902,4358.69696926,3202.18181786,5008.81818132,3338.18181785,4049.09090869,519.272727221,4436.48484804,3655.51515115,4142.33333292,20.606060604,4857.36363588,3812.12121174,4377.75757532,255.51515149,42.0,42.0,?
2017-08-07 13:38:58.498184,4565.78787833,3861.57575719,4160.36363595,4215.99999958,3844.57575719,597.575757516,4194.87878746,57.6969696912,4324.69696926,313.212121181,4467.39393895,259.63636361,4229.90909049,3787.39393902,4367.45454502,3202.18181786,5015.51515101,3338.18181785,4049.6060602,519.272727221,4435.45454501,3655.51515115,4143.87878746,20.606060604,4861.99999951,3812.12121174,4385.99999956,255.51515149,42.0,42.0,?
2017-08-07 13:38:58.506711,4570.42424197,3861.57575719,4159.84848443,4215.99999958,3841.99999962,597.575757516,4200.54545413,57.6969696912,4321.09090866,313.212121181,4465.33333289,259.63636361,4236.09090867,3787.39393902,4369.51515108,3202.18181786,4999.54545405,3338.18181785,4043.42424202,519.272727221,4428.2424238,3655.51515115,4135.12121171,20.606060604,4851.1818177,3812.12121174,4385.48484805,255.51515149,42.0,42.0,?
2017-08-07 13:38:58.512248,4564.7575753,3861.57575719,4156.24242383,4215.99999958,3834.27272689,597.575757516,4191.27272685,57.6969696912,4324.18181775,313.212121181,4461.72727228,259.63636361,4217.54545412,3787.39393902,4358.69696926,3202.18181786,4984.09090859,3338.18181785,4036.21212081,519.272727221,4431.84848441,3655.51515115,4131.5151511,20.606060604,4846.54545406,3812.12121174,4379.81818138,255.51515149,42.0,42.0,?
2017-08-07 13:38:58.520565,4537.96969652,3861.57575719,4155.2121208,4211.87878746,3837.87878749,597.575757516,4175.8181814,57.6969696912,4326.75757532,313.212121181,4462.2424238,259.63636361,4206.21212079,3787.39393902,4353.54545411,3202.18181786,4989.75757526,3338.18181785,4042.39393899,519.272727221,4425.15151471,3655.51515115,4137.18181777,20.606060604,4851.69696921,3812.12121174,4376.21212077,255.51515149,42.0,42.0,?
2017-08-07 13:38:58.527027,4518.90909046,3861.57575719,4156.24242383,4211.87878746,3839.93939356,597.575757516,4173.75757534,57.6969696912,4314.90909048,313.212121181,4456.57575713,259.63636361,4211.36363594,3787.39393902,4359.72727229,3202.18181786,4997.9999995,3338.18181785,4049.09090869,519.272727221,4421.5454541,3655.51515115,4141.8181814,20.606060604,4851.1818177,3812.12121174,4376.72727229,259.63636361,42.0,42.0,?
2017-08-07 13:38:58.536129,4514.27272682,3861.57575719,4156.24242383,4211.87878746,3837.36363598,601.696969637,4172.72727231,57.6969696912,4307.69696927,313.212121181,4451.93939349,259.63636361,4217.54545412,3787.39393902,4364.36363593,3202.18181786,4992.84848435,3338.18181785,4045.9999996,519.272727221,4429.27272683,3655.51515115,4140.78787837,20.606060604,4852.72727224,3812.12121174,4383.42424199,259.63636361,42.0,42.0,?
2017-08-07 13:38:58.542853,4510.1515147,3861.57575719,4160.87878746,4211.87878746,3843.54545416,601.696969637,4161.90909049,210.181818161,4315.93939351,313.212121181,4456.57575713,259.63636361,4220.63636321,3787.39393902,4363.84848441,3202.18181786,4988.72727223,3338.18181785,4047.03030263,519.272727221,4429.78787834,3655.51515115,4143.87878746,20.606060604,4862.51515103,3812.12121174,4392.18181774,259.63636361,42.0,42.0,?
2017-08-07 13:38:58.551317,4511.18181773,3861.57575719,4168.09090867,4211.87878746,3848.1818178,601.696969637,4155.2121208,210.181818161,4316.96969654,321.454545422,4460.18181774,259.63636361,4217.03030261,3787.39393902,4360.75757532,3202.18181786,4990.78787829,3338.18181785,4054.75757535,519.272727221,4431.33333289,3655.51515115,4149.54545413,20.606060604,4870.24242376,3812.12121174,4392.18181774,259.63636361,42.0,42.0,?
2017-08-07 13:38:58.557676,4507.57575713,3861.57575719,4169.63636322,4211.87878746,3844.06060568,601.696969637,4152.63636322,210.181818161,4314.39393896,321.454545422,4459.66666622,251.393939369,4216.51515109,3787.39393902,4358.69696926,3202.18181786,4993.87878738,3338.18181785,4054.24242384,519.272727221,4430.30302986,3655.51515115,4146.45454504,20.606060604,4867.66666618,3812.12121174,4386.51515108,259.63636361,42.0,42.0,?
2017-08-07 13:38:58.565786,4500.36363591,3861.57575719,4164.99999958,4211.87878746,3840.96969659,601.696969637,4148.5151511,210.181818161,4319.54545411,321.454545422,4462.2424238,251.393939369,4222.69696927,3783.27272689,4360.24242381,3202.18181786,4993.87878738,3338.18181785,4047.03030263,519.272727221,4424.12121168,3655.51515115,4138.2121208,20.606060604,4860.45454497,3812.12121174,4384.96969653,259.63636361,42.0,42.0,?
2017-08-07 13:38:58.576757,4503.454545,3861.57575719,4165.5151511,4211.87878746,3844.57575719,601.696969637,4147.99999959,210.181818161,4327.78787836,321.454545422,4463.78787834,251.393939369,4220.63636321,3783.27272689,4366.42424199,3202.18181786,4990.27272677,3338.18181785,4051.15151475,519.272727221,4426.18181774,3655.51515115,4143.36363595,20.606060604,4863.54545406,3812.12121174,4389.09090865,259.63636361,42.0,42.0,?
2017-08-07 13:38:58.582557,4507.06060561,3861.57575719,4172.21212079,4211.87878746,3850.75757537,601.696969637,4147.99999959,210.181818161,4323.66666623,321.454545422,4459.66666622,251.393939369,4210.33333291,3783.27272689,4365.90909047,3202.18181786,4987.18181768,3334.06060573,4055.78787838,519.272727221,4429.27272683,3655.51515115,4151.60606019,20.606060604,4867.66666618,3812.12121174,4392.18181774,259.63636361,42.0,42.0,?
2017-08-07 13:38:58.590157,4506.54545409,3861.57575719,4173.24242383,4211.87878746,3849.72727234,601.696969637,4145.93939352,210.181818161,4313.36363593,321.454545422,4461.72727228,251.393939369,4208.27272685,3783.27272689,4360.75757532,3202.18181786,4990.27272677,3334.06060573,4049.6060602,515.1515151,4427.21212077,3655.51515115,4149.54545413,20.606060604,4864.06060557,3812.12121174,4391.66666623,259.63636361,42.0,42.0,?
2017-08-07 13:38:58.597590,4510.1515147,3861.57575719,4172.72727231,4211.87878746,3847.66666628,601.696969637,4145.42424201,210.181818161,4319.0303026,321.454545422,4467.39393895,251.393939369,4220.63636321,3783.27272689,4366.42424199,3202.18181786,4992.84848435,3334.06060573,4051.66666626,515.1515151,4430.30302986,3643.15151479,4152.63636322,20.606060604,4864.57575709,3812.12121174,4394.2424238,259.63636361,42.0,42.0,?
2017-08-07 13:38:58.605575,4514.27272682,3861.57575719,4174.78787837,4211.87878746,3849.72727234,601.696969637,4146.96969656,210.181818161,4325.21212078,321.454545422,4466.36363592,251.393939369,4224.24242382,3783.27272689,4367.96969653,3202.18181786,4986.66666617,3334.06060573,4058.36363596,515.1515151,4430.81818138,3643.15151479,4155.2121208,24.7272727248,4868.1818177,3812.12121174,4396.81818138,259.63636361,42.0,42.0,?
2017-08-07 13:38:58.613490,4511.18181773,3861.57575719,4174.78787837,4211.87878746,3848.1818178,601.696969637,4141.8181814,210.181818161,4319.0303026,321.454545422,4464.81818137,251.393939369,4217.03030261,3783.27272689,4358.18181775,3202.18181786,4983.06060556,3334.06060573,4053.72727232,515.1515151,4426.18181774,3643.15151479,4149.03030262,24.7272727248,4865.0909086,3820.36363598,4396.30302986,259.63636361,42.0,42.0,?
2017-08-07 13:38:58.621017,4511.69696925,3861.57575719,4177.87878746,4211.87878746,3846.12121174,601.696969637,4135.12121171,210.181818161,4313.87878745,321.454545422,4467.39393895,251.393939369,4217.03030261,3783.27272689,4358.69696926,3202.18181786,4992.33333283,3334.06060573,4051.66666626,511.030302979,4427.21212077,3643.15151479,4149.03030262,24.7272727248,4866.12121163,3820.36363598,4397.84848441,259.63636361,42.0,42.0,?
2017-08-07 13:38:58.628298,4519.93939349,3861.57575719,4186.63636322,4211.87878746,3853.33333295,601.696969637,4140.27272686,210.181818161,4322.6363632,321.454545422,4467.90909046,251.393939369,4221.66666624,3783.27272689,4368.48484805,3202.18181786,5001.60606011,3334.06060573,4059.9090905,511.030302979,4434.9393935,3647.27272691,4158.30302989,24.7272727248,4876.93939345,3820.36363598,4406.09090865,259.63636361,42.0,42.0,?
2017-08-07 13:38:58.636506,4527.1515147,3861.57575719,4192.30302988,4211.87878746,3860.54545416,601.696969637,4145.42424201,210.181818161,4330.87878745,321.454545422,4469.96969652,251.393939369,4220.63636321,3783.27272689,4368.99999956,3202.18181786,5003.66666617,3334.06060573,4060.93939353,511.030302979,4438.5454541,3647.27272691,4161.39393898,20.606060604,4882.60606012,3820.36363598,4413.30302986,259.63636361,42.0,42.0,?
2017-08-07 13:38:58.644164,4525.60606015,3861.57575719,4190.75757534,4211.87878746,3857.96969658,601.696969637,4137.18181777,210.181818161,4326.75757532,321.454545422,4473.57575713,251.393939369,4218.57575715,3783.27272689,4364.87878744,3202.18181786,4996.45454495,3334.06060573,4056.81818141,511.030302979,4436.48484804,3647.27272691,4159.33333292,20.606060604,4882.0909086,3820.36363598,4416.90909047,259.63636361,42.0,42.0,?
2017-08-07 13:38:58.651495,4520.96969652,3861.57575719,4187.66666625,4211.87878746,3857.96969658,601.696969637,4129.96969656,210.181818161,4321.09090866,321.454545422,4468.42424198,251.393939369,4219.60606018,3783.27272689,4364.36363593,3202.18181786,4988.72727223,3334.06060573,4062.48484808,511.030302979,4434.42424198,3647.27272691,4158.8181814,20.606060604,4878.99999951,3820.36363598,4418.45454501,259.63636361,42.0,42.0,?
2017-08-07 13:38:58.660492,4517.36363591,3861.57575719,4187.66666625,4211.87878746,3857.96969658,601.696969637,4133.06060565,210.181818161,4325.72727229,321.454545422,4463.27272683,251.393939369,4217.54545412,3783.27272689,4365.39393896,3202.18181786,4993.87878738,3334.06060573,4064.03030262,511.030302979,4431.33333289,3647.27272691,4155.2121208,20.606060604,4872.30302982,3820.36363598,4414.33333289,259.63636361,42.0,42.0,?
2017-08-07 13:38:58.667550,4516.8484844,3861.57575719,4187.66666625,4211.87878746,3849.72727234,601.696969637,4131.5151511,210.181818161,4329.3333329,321.454545422,4464.81818137,251.393939369,4212.90909049,3783.27272689,4363.3333329,3202.18181786,4994.90909041,3334.06060573,4054.75757535,511.030302979,4428.75757531,3647.27272691,4149.03030262,20.606060604,4871.27272679,3820.36363598,4408.15151471,259.63636361,42.0,42.0,?
2017-08-07 13:38:58.675058,4521.48484803,3861.57575719,4186.1212117,4211.87878746,3851.27272689,601.696969637,4126.36363595,210.181818161,4322.12121169,321.454545422,4462.75757531,251.393939369,4214.45454503,3783.27272689,4362.81818138,3202.18181786,4984.60606011,3334.06060573,4054.24242384,511.030302979,4432.36363592,3647.27272691,4149.54545413,20.606060604,4873.33333285,3820.36363598,4410.72727229,259.63636361,42.0,42.0,?
2017-08-07 13:38:58.683629,4526.63636318,3861.57575719,4191.27272685,4211.87878746,3863.12121173,601.696969637,4129.45454504,210.181818161,4325.21212078,321.454545422,4466.36363592,251.393939369,4224.24242382,3783.27272689,4372.60606017,3202.18181786,4991.81818132,3334.06060573,4063.51515111,511.030302979,4436.99999956,3647.27272691,4154.69696928,20.606060604,4874.36363588,3820.36363598,4418.45454501,259.63636361,42.0,42.0,?
2017-08-07 13:38:58.691478,4529.21212076,3861.57575719,4202.09090867,4211.87878746,3864.15151477,601.696969637,4133.06060565,210.181818161,4339.6363632,321.454545422,4479.75757531,251.393939369,4230.93939352,3783.27272689,4379.81818138,3202.18181786,5006.24242374,3334.06060573,4068.15151474,511.030302979,4441.12121168,3647.27272691,4160.36363595,20.606060604,4877.45454497,3820.36363598,4418.96969653,259.63636361,42.0,42.0,?
2017-08-07 13:38:58.698473,4531.78787833,3861.57575719,4206.21212079,4211.87878746,3864.15151477,601.696969637,4130.99999959,210.181818161,4340.15151472,321.454545422,4482.33333289,251.393939369,4231.96969655,3783.27272689,4377.75757532,3202.18181786,5003.66666617,3334.06060573,4069.18181777,511.030302979,4443.18181774,3647.27272691,4166.54545413,20.606060604,4885.18181769,3820.36363598,4422.57575713,259.63636361,42.0,42.0,?
2017-08-07 13:38:58.710215,4537.454545,3861.57575719,4204.15151473,4211.87878746,3870.84848446,601.696969637,4127.39393898,210.181818161,4329.84848442,321.454545422,4474.60606016,251.393939369,4238.66666624,3783.27272689,4380.84848441,3202.18181786,5000.06060556,3334.06060573,4069.18181777,511.030302979,4445.75757531,3647.27272691,4169.1212117,20.606060604,4890.84848436,3820.36363598,4433.90909047,259.63636361,42.0,42.0,?
2017-08-07 13:38:58.728307,4536.42424197,3861.57575719,4203.63636322,4211.87878746,3866.72727234,601.696969637,4121.72727232,210.181818161,4323.66666623,321.454545422,4469.45454501,251.393939369,4239.69696927,3783.27272689,4385.99999956,3202.18181786,5003.66666617,3334.06060573,4065.57575717,511.030302979,4443.18181774,3647.27272691,4164.48484807,20.606060604,4883.12121163,3820.36363598,4433.90909047,259.63636361,42.0,42.0,?
2017-08-07 13:38:58.730051,4524.06060561,3861.57575719,4201.06060564,4211.87878746,3857.45454507,601.696969637,4115.54545413,210.181818161,4323.15151472,321.454545422,4465.8484844,251.393939369,4227.33333291,3783.27272689,4385.48484805,3202.18181786,5006.75757526,3334.06060573,4063.51515111,511.030302979,4432.36363592,3647.27272691,4160.36363595,20.606060604,4868.69696921,3820.36363598,4423.60606016,259.63636361,42.0,42.0,?
2017-08-07 13:38:58.734752,4530.24242379,3861.57575719,4201.57575716,4211.87878746,3861.57575719,601.696969637,4116.57575716,210.181818161,4328.30302987,321.454545422,4465.33333289,251.393939369,4234.03030261,3783.27272689,4392.18181774,3202.18181786,5015.51515101,3334.06060573,4070.21212081,511.030302979,4443.69696925,3647.27272691,4172.72727231,20.606060604,4886.21212072,3820.36363598,4418.96969653,259.63636361,42.0,42.0,?
2017-08-07 13:38:58.741941,4530.24242379,3861.57575719,4201.57575716,4211.87878746,3861.57575719,601.696969637,4116.57575716,210.181818161,4328.30302987,321.454545422,4465.33333289,251.393939369,4234.03030261,3783.27272689,4392.18181774,3202.18181786,5015.51515101,3334.06060573,4070.21212081,511.030302979,4443.69696925,3647.27272691,4172.72727231,20.606060604,4886.21212072,3820.36363598,4418.96969653,259.63636361,42.0,42.0,?
2017-08-07 13:38:58.746074,4530.7575753,3861.57575719,4201.57575716,4211.87878746,3861.06060567,601.696969637,4113.99999959,210.181818161,4325.21212078,321.454545422,4457.09090865,251.393939369,4235.57575715,3783.27272689,4388.57575714,3202.18181786,5006.75757526,3334.06060573,4066.6060602,511.030302979,4437.51515107,3647.27272691,4168.09090867,20.606060604,4885.18181769,3820.36363598,4423.09090865,259.63636361,42.0,42.0,?
2017-08-07 13:38:58.755554,4525.60606015,3861.57575719,4203.63636322,4211.87878746,3864.66666628,601.696969637,4105.75757535,210.181818161,4326.24242381,321.454545422,4457.60606016,251.393939369,4230.93939352,3783.27272689,4381.87878744,3202.18181786,4999.54545405,3334.06060573,4054.75757535,511.030302979,4423.60606016,3647.27272691,4156.75757534,20.606060604,4870.75757527,3820.36363598,4422.06060562,259.63636361,42.0,42.0,?
2017-08-07 13:38:58.761072,4526.12121167,3861.57575719,4205.69696928,4211.87878746,3868.7878784,601.696969637,4097.51515111,210.181818161,4330.87878745,321.454545422,4463.78787834,251.393939369,4234.54545412,3783.27272689,4387.03030259,3202.18181786,5004.6969692,3334.06060573,4050.63636323,511.030302979,4424.12121168,3647.27272691,4156.24242383,20.606060604,4866.63636315,3820.36363598,4417.9393935,259.63636361,42.0,42.0,?
2017-08-07 13:38:58.770832,4530.24242379,3861.57575719,4204.15151473,4211.87878746,3869.30302992,601.696969637,4094.93939353,210.181818161,4331.90909048,321.454545422,4464.30302986,251.393939369,4237.1212117,3783.27272689,4391.66666623,3202.18181786,5009.84848435,3334.06060573,4059.39393899,511.030302979,4429.27272683,3647.27272691,4166.54545413,20.606060604,4870.75757527,3820.36363598,4418.45454501,259.63636361,42.0,42.0,?
2017-08-07 13:38:58.777543,4531.78787833,3861.57575719,4209.30302988,4211.87878746,3869.30302992,601.696969637,4093.39393898,210.181818161,4337.57575714,321.454545422,4467.90909046,251.393939369,4236.60606018,3783.27272689,4390.6363632,3202.18181786,5001.09090859,3334.06060573,4063.51515111,511.030302979,4428.75757531,3647.27272691,4168.60606019,20.606060604,4874.36363588,3820.36363598,4423.60606016,259.63636361,42.0,42.0,?
2017-08-07 13:38:58.787018,4533.33333288,3861.57575719,4213.93939352,4211.87878746,3867.75757537,601.696969637,4088.24242383,210.181818161,4345.30302987,321.454545422,4479.24242379,251.393939369,4239.69696927,3783.27272689,4394.2424238,3202.18181786,4994.39393889,3334.06060573,4054.75757535,511.030302979,4427.72727228,3647.27272691,4160.87878746,20.606060604,4881.06060557,3820.36363598,4423.09090865,259.63636361,42.0,42.0,?
2017-08-07 13:38:58.793680,4535.90909046,3861.57575719,4209.30302988,4211.87878746,3864.66666628,601.696969637,4090.81818141,210.181818161,4339.12121169,321.454545422,4480.27272682,251.393939369,4240.21212079,3783.27272689,4400.42424198,3202.18181786,5008.81818132,3334.06060573,4047.03030263,511.030302979,4428.75757531,3647.27272691,4161.39393898,20.606060604,4884.15151466,3820.36363598,4419.48484804,259.63636361,42.0,42.0,?
2017-08-07 13:38:58.801481,4531.78787833,3861.57575719,4205.18181776,4211.87878746,3865.1818178,601.696969637,4096.99999959,210.181818161,4335.51515108,321.454545422,4469.96969652,251.393939369,4234.03030261,3783.27272689,4393.72727229,3202.18181786,5016.54545404,3334.06060573,4042.39393899,511.030302979,4421.03030259,3647.27272691,4165.5151511,20.606060604,4872.81818133,3820.36363598,4415.36363592,259.63636361,42.0,42.0,?
2017-08-07 13:38:58.808768,4528.69696924,3861.57575719,4205.18181776,4211.87878746,3863.12121173,601.696969637,4094.42424201,210.181818161,4338.60606017,321.454545422,4464.81818137,251.393939369,4228.87878746,3783.27272689,4383.42424199,3202.18181786,5005.72727223,3334.06060573,4037.75757535,511.030302979,4413.81818138,3647.27272691,4164.99999958,20.606060604,4866.12121163,3820.36363598,4412.27272683,259.63636361,42.0,42.0,?
2017-08-07 13:38:58.817832,4533.33333288,3861.57575719,4208.27272685,4211.87878746,3860.03030264,601.696969637,4088.24242383,210.181818161,4332.93939351,321.454545422,4461.72727228,251.393939369,4225.27272685,3783.27272689,4387.54545411,3202.18181786,5011.90909041,3334.06060573,4043.93939353,511.030302979,4422.57575713,3647.27272691,4169.63636322,20.606060604,4879.51515103,3820.36363598,4418.96969653,259.63636361,42.0,42.0,?
2017-08-07 13:38:58.828566,4536.42424197,3861.57575719,4212.39393897,4211.87878746,3863.63636325,601.696969637,4088.75757535,210.181818161,4328.30302987,321.454545422,4463.27272683,251.393939369,4221.66666624,3783.27272689,4390.12121168,3202.18181786,5022.72727222,3334.06060573,4051.15151475,511.030302979,4428.75757531,3647.27272691,4175.8181814,20.606060604,4884.66666618,3820.36363598,4427.72727228,259.63636361,42.0,42.0,?
2017-08-07 13:38:58.835246,4533.33333288,3861.57575719,4209.30302988,4211.87878746,3864.15151477,601.696969637,4090.30302989,210.181818161,4335.51515108,321.454545422,4470.48484804,251.393939369,4222.69696927,3783.27272689,4382.39393896,3202.18181786,5012.93939344,3334.06060573,4045.48484808,511.030302979,4424.12121168,3647.27272691,4172.21212079,20.606060604,4876.93939345,3820.36363598,4424.12121168,259.63636361,42.0,42.0,?
2017-08-07 13:38:58.839991,4528.69696924,3861.57575719,4204.66666625,4211.87878746,3859.51515113,601.696969637,4087.2121208,210.181818161,4340.66666623,321.454545422,4469.45454501,251.393939369,4229.90909049,3783.27272689,4381.87878744,3202.18181786,5008.81818132,3334.06060573,4043.93939353,511.030302979,4423.60606016,3647.27272691,4168.60606019,20.606060604,4878.99999951,3820.36363598,4413.30302986,259.63636361,42.0,42.0,?
2017-08-07 13:38:58.846469,4531.27272682,3861.57575719,4214.96969655,4211.87878746,3860.54545416,601.696969637,4086.18181777,210.181818161,4338.60606017,321.454545422,4468.93939349,251.393939369,4237.1212117,3783.27272689,4389.60606017,3202.18181786,5017.06060556,3334.06060573,4050.12121172,511.030302979,4426.69696925,3647.27272691,4173.24242383,20.606060604,4883.12121163,3820.36363598,4414.84848441,259.63636361,42.0,42.0,?
2017-08-07 13:38:58.855288,4534.36363591,3861.57575719,4224.75757534,4211.87878746,3867.24242386,601.696969637,4088.24242383,210.181818161,4341.69696926,321.454545422,4477.69696925,251.393939369,4237.63636321,3783.27272689,4391.66666623,3202.18181786,5016.03030253,3334.06060573,4045.9999996,511.030302979,4426.18181774,3647.27272691,4174.27272686,20.606060604,4873.84848436,3820.36363598,4427.72727228,259.63636361,42.0,42.0,?
2017-08-07 13:38:58.864434,4535.90909046,3861.57575719,4216.51515109,4211.87878746,3868.27272689,601.696969637,4085.66666626,210.181818161,4342.21212078,321.454545422,4481.81818137,251.393939369,4240.21212079,3783.27272689,4393.21212077,3202.18181786,5017.57575707,3334.06060573,4047.54545414,511.030302979,4426.69696925,3647.27272691,4183.54545413,20.606060604,4873.33333285,3820.36363598,4429.78787834,259.63636361,42.0,42.0,?
2017-08-07 13:38:58.871040,4535.90909046,3861.57575719,4216.51515109,4211.87878746,3863.63636325,601.696969637,4078.45454505,210.181818161,4342.21212078,321.454545422,4479.24242379,251.393939369,4248.45454503,3783.27272689,4399.90909047,3202.18181786,5017.57575707,3334.06060573,4056.81818141,511.030302979,4430.81818138,3647.27272691,4183.54545413,20.606060604,4884.15151466,3820.36363598,4424.63636319,259.63636361,42.0,42.0,?
2017-08-07 13:38:58.881534,4541.06060561,3861.57575719,4222.18181776,4211.87878746,3864.66666628,601.696969637,4078.96969656,210.181818161,4347.36363593,321.454545422,4484.39393895,251.393939369,4250.51515109,3783.27272689,4402.48484804,3202.18181786,5010.36363586,3334.06060573,4047.54545414,511.030302979,4426.18181774,3647.27272691,4175.30302989,20.606060604,4880.03030254,3820.36363598,4426.69696925,259.63636361,42.0,42.0,?
2017-08-07 13:38:58.891118,4534.87878743,3861.57575719,4219.09090867,4211.87878746,3866.72727234,601.696969637,4083.09090868,210.181818161,4353.54545411,321.454545422,4486.45454501,251.393939369,4242.27272685,3783.27272689,4396.30302986,3202.18181786,5013.45454495,3334.06060573,4034.66666626,511.030302979,4417.9393935,3647.27272691,4167.06060564,20.606060604,4868.69696921,3820.36363598,4427.21212077,259.63636361,42.0,42.0,?
2017-08-07 13:38:58.895523,4524.57575712,3861.57575719,4209.30302988,4211.87878746,3857.96969658,601.696969637,4077.42424202,210.181818161,4344.27272684,321.454545422,4475.63636319,251.393939369,4236.09090867,3783.27272689,4389.09090865,3202.18181786,5013.45454495,3334.06060573,4042.39393899,511.030302979,4421.03030259,3647.27272691,4173.75757534,20.606060604,4873.84848436,3820.36363598,4417.42424198,259.63636361,42.0,42.0,?
2017-08-07 13:38:58.902432,4526.12121167,3861.57575719,4208.27272685,4211.87878746,3850.75757537,601.696969637,4070.72727232,210.181818161,4333.96969654,321.454545422,4467.90909046,251.393939369,4235.06060564,3783.27272689,4385.99999956,3202.18181786,5003.66666617,3334.06060573,4049.09090869,511.030302979,4426.69696925,3647.27272691,4180.45454504,20.606060604,4882.60606012,3820.36363598,4410.72727229,259.63636361,42.0,42.0,?
2017-08-07 13:38:58.909941,4537.454545,3861.57575719,4219.60606018,4211.87878746,3860.54545416,601.696969637,4073.3030299,210.181818161,4336.54545411,321.454545422,4465.33333289,251.393939369,4232.99999958,3783.27272689,4385.99999956,3202.18181786,5007.78787829,3334.06060573,4041.87878747,511.030302979,4425.66666622,3647.27272691,4174.78787837,20.606060604,4882.0909086,3820.36363598,4421.5454541,259.63636361,42.0,42.0,?
2017-08-07 13:38:58.917604,4546.72727227,3861.57575719,4230.424242,4211.87878746,3870.84848446,601.696969637,4076.39393899,210.181818161,4340.15151472,321.454545422,4467.90909046,251.393939369,4234.54545412,3783.27272689,4384.45454502,3202.18181786,5015.51515101,3334.06060573,4041.87878747,511.030302979,4426.69696925,3647.27272691,4174.78787837,20.606060604,4882.60606012,3820.36363598,4433.90909047,259.63636361,42.0,42.0,?
2017-08-07 13:38:58.926802,4542.60606015,3861.57575719,4225.78787837,4211.87878746,3867.24242386,601.696969637,4074.33333293,210.181818161,4336.54545411,321.454545422,4473.06060561,251.393939369,4237.63636321,3783.27272689,4390.12121168,3202.18181786,5014.9999995,3334.06060573,4052.69696929,511.030302979,4430.30302986,3647.27272691,4181.99999958,20.606060604,4883.63636315,3820.36363598,4427.21212077,259.63636361,42.0,42.0,?
2017-08-07 13:38:58.932330,4536.42424197,3861.57575719,4216.51515109,4211.87878746,3861.57575719,601.696969637,4071.75757535,210.181818161,4337.06060563,321.454545422,4475.63636319,251.393939369,4238.66666624,3783.27272689,4397.84848441,3202.18181786,5018.09090859,3334.06060573,4060.42424202,511.030302979,4431.84848441,3647.27272691,4188.18181776,20.606060604,4881.06060557,3820.36363598,4408.66666623,259.63636361,42.0,42.0,?
2017-08-07 13:38:58.940328,4541.57575712,3861.57575719,4222.69696927,4211.87878746,3864.15151477,601.696969637,4072.78787838,210.181818161,4339.6363632,321.454545422,4470.99999955,251.393939369,4239.18181776,3783.27272689,4393.21212077,3202.18181786,5017.06060556,3334.06060573,4058.36363596,511.030302979,4428.2424238,3647.27272691,4185.60606019,20.606060604,4881.57575709,3820.36363598,4410.21212077,259.63636361,42.0,42.0,?
2017-08-07 13:38:58.950566,4545.69696924,3861.57575719,4236.09090867,4211.87878746,3873.42424204,601.696969637,4077.42424202,210.181818161,4338.60606017,321.454545422,4467.90909046,251.393939369,4235.06060564,3783.27272689,4388.57575714,3202.18181786,5007.27272677,3334.06060573,4050.63636323,511.030302979,4425.15151471,3647.27272691,4178.39393898,20.606060604,4878.99999951,3820.36363598,4429.78787834,259.63636361,42.0,42.0,?
2017-08-07 13:38:58.956369,4546.21212076,3861.57575719,4238.15151473,4211.87878746,3881.66666628,601.696969637,4077.93939353,210.181818161,4336.0303026,321.454545422,4473.57575713,251.393939369,4232.99999958,3783.27272689,4397.33333289,3202.18181786,5012.93939344,3334.06060573,4052.69696929,511.030302979,4426.69696925,3647.27272691,4179.93939352,20.606060604,4875.90909042,3820.36363598,4435.45454501,259.63636361,42.0,42.0,?
2017-08-07 13:38:58.965621,4549.81818136,3861.57575719,4234.54545412,4211.87878746,3882.18181779,601.696969637,4073.81818141,210.181818161,4335.51515108,321.454545422,4479.75757531,251.393939369,4238.66666624,3783.27272689,4401.96969653,3202.18181786,5024.27272677,3334.06060573,4062.48484808,511.030302979,4430.30302986,3647.27272691,4187.15151473,20.606060604,4883.12121163,3820.36363598,4431.84848441,259.63636361,42.0,42.0,?
2017-08-07 13:38:58.973027,4552.39393894,3861.57575719,4234.54545412,4211.87878746,3875.99999961,601.696969637,4072.78787838,210.181818161,4337.57575714,321.454545422,4473.06060561,251.393939369,4234.54545412,3783.27272689,4394.75757532,3202.18181786,5018.6060601,3334.06060573,4065.57575717,511.030302979,4436.48484804,3647.27272691,4190.75757534,20.606060604,4895.99999951,3820.36363598,4433.90909047,259.63636361,42.0,42.0,?
2017-08-07 13:38:58.983747,4546.72727227,3861.57575719,4234.03030261,4211.87878746,3869.81818143,601.696969637,4070.21212081,210.181818161,4335.51515108,321.454545422,4465.33333289,251.393939369,4224.75757534,3783.27272689,4390.6363632,3202.18181786,5007.78787829,3334.06060573,4060.93939353,511.030302979,4430.81818138,3647.27272691,4187.66666625,20.606060604,4890.84848436,3820.36363598,4432.87878744,259.63636361,42.0,42.0,?
2017-08-07 13:38:58.988272,4538.48484803,3861.57575719,4234.54545412,4211.87878746,3867.24242386,601.696969637,4060.93939353,210.181818161,4337.57575714,321.454545422,4474.60606016,251.393939369,4227.33333291,3783.27272689,4384.96969653,3202.18181786,5002.63636314,3334.06060573,4050.63636323,511.030302979,4414.84848441,3647.27272691,4180.96969655,20.606060604,4873.84848436,3820.36363598,4421.03030259,259.63636361,42.0,42.0,?
2017-08-07 13:38:58.998274,4535.90909046,3861.57575719,4233.51515109,4211.87878746,3865.69696931,601.696969637,4058.87878747,210.181818161,4346.3333329,321.454545422,4482.33333289,251.393939369,4224.75757534,3783.27272689,4380.84848441,3202.18181786,5001.60606011,3334.06060573,4038.78787838,511.030302979,4409.69696926,3647.27272691,4174.78787837,20.606060604,4868.69696921,3820.36363598,4416.90909047,259.63636361,42.0,42.0,?
2017-08-07 13:38:59.003973,4538.99999955,3861.57575719,4232.99999958,4211.87878746,3864.15151477,601.696969637,4065.06060565,210.181818161,4350.96969653,321.454545422,4474.60606016,251.393939369,4219.09090867,3783.27272689,4393.21212077,3202.18181786,5011.90909041,3334.06060573,4046.51515111,511.030302979,4419.48484804,3647.27272691,4181.48484807,20.606060604,4876.93939345,3820.36363598,4426.69696925,259.63636361,42.0,42.0,?
2017-08-07 13:38:59.013464,4541.06060561,3861.57575719,4233.51515109,4211.87878746,3868.7878784,601.696969637,4061.45454505,210.181818161,4344.78787835,321.454545422,4473.06060561,251.393939369,4226.30302988,3783.27272689,4401.45454501,3202.18181786,5024.78787829,3334.06060573,4066.09090868,511.030302979,4428.75757531,3647.27272691,4195.90909049,20.606060604,4884.15151466,3820.36363598,4433.90909047,259.63636361,42.0,42.0,?
2017-08-07 13:38:59.019090,4541.06060561,3869.81818143,4232.48484806,4211.87878746,3877.03030264,601.696969637,4053.72727232,210.181818161,4336.54545411,321.454545422,4479.24242379,251.393939369,4227.33333291,3783.27272689,4391.66666623,3202.18181786,5026.84848435,3334.06060573,4069.18181777,511.030302979,4427.72727228,3647.27272691,4200.03030261,20.606060604,4884.66666618,3820.36363598,4432.36363592,259.63636361,42.0,42.0,?
2017-08-07 13:38:59.026591,4549.30302985,3869.81818143,4240.21212079,4215.99999958,3882.69696931,601.696969637,4058.87878747,210.181818161,4338.60606017,321.454545422,4470.99999955,251.393939369,4226.30302988,3783.27272689,4388.57575714,3202.18181786,5028.39393889,3334.06060573,4070.21212081,511.030302979,4429.78787834,3647.27272691,4203.1212117,20.606060604,4888.7878783,3820.36363598,4434.42424198,259.63636361,42.0,42.0,?
2017-08-07 13:38:59.036617,4555.99999954,3869.81818143,4248.96969654,4215.99999958,3883.21212082,601.696969637,4065.57575717,210.181818161,4341.18181775,321.454545422,4465.33333289,251.393939369,4235.06060564,3783.27272689,4393.72727229,3202.18181786,5031.48484798,3334.06060573,4077.93939353,511.030302979,4434.42424198,3647.27272691,4206.72727231,20.606060604,4892.90909042,3820.36363598,4439.06060562,247.272727248,42.0,42.0,?
2017-08-07 13:38:59.047808,4548.27272682,3869.81818143,4242.78787836,4215.99999958,3880.63636325,593.454545395,4060.42424202,210.181818161,4336.0303026,321.454545422,4475.63636319,251.393939369,4231.45454503,3783.27272689,4387.54545411,3202.18181786,5017.06060556,3334.06060573,4072.78787838,511.030302979,4429.27272683,3647.27272691,4200.54545413,20.606060604,4889.81818133,3820.36363598,4432.87878744,247.272727248,42.0,42.0,?
2017-08-07 13:38:59.054392,4543.12121167,3869.81818143,4234.03030261,4215.99999958,3878.06060567,593.454545395,4056.81818141,201.939393919,4334.99999957,321.454545422,4476.1515147,251.393939369,4220.63636321,3783.27272689,4387.54545411,3202.18181786,5007.27272677,3334.06060573,4068.66666626,511.030302979,4426.69696925,3647.27272691,4199.5151511,20.606060604,4888.27272678,3820.36363598,4426.18181774,247.272727248,42.0,42.0,?
2017-08-07 13:38:59.060297,4546.72727227,3869.81818143,4234.54545412,4215.99999958,3874.45454507,593.454545395,4058.36363596,201.939393919,4338.60606017,325.575757543,4464.81818137,251.393939369,4224.75757534,3783.27272689,4395.27272683,3202.18181786,5021.69696919,3334.06060573,4072.27272687,511.030302979,4428.75757531,3647.27272691,4205.18181776,20.606060604,4886.72727224,3820.36363598,4426.69696925,247.272727248,42.0,42.0,?
2017-08-07 13:38:59.065709,4544.1515147,3869.81818143,4235.57575715,4215.99999958,3868.27272689,593.454545395,4051.66666626,201.939393919,4331.39393896,325.575757543,4463.78787834,251.393939369,4227.84848443,3783.27272689,4389.09090865,3202.18181786,5027.87878738,3334.06060573,4065.06060565,511.030302979,4422.57575713,3647.27272691,4198.48484806,20.606060604,4880.54545406,3820.36363598,4425.15151471,247.272727248,42.0,42.0,?
2017-08-07 13:38:59.074385,4540.03030258,3869.81818143,4232.99999958,4215.99999958,3862.60606022,593.454545395,4045.48484808,201.939393919,4323.15151472,325.575757543,4464.81818137,251.393939369,4220.1212117,3787.39393902,4379.81818138,3202.18181786,5012.93939344,3334.06060573,4055.78787838,511.030302979,4415.87878744,3647.27272691,4191.27272685,20.606060604,4875.90909042,3820.36363598,4416.39393895,247.272727248,42.0,42.0,?
2017-08-07 13:38:59.081955,4542.09090864,3869.81818143,4233.51515109,4215.99999958,3865.69696931,593.454545395,4047.54545414,201.939393919,4327.78787836,325.575757543,4466.36363592,251.393939369,4222.18181776,3787.39393902,4383.9393935,3206.30302998,5010.36363586,3334.06060573,4058.87878747,511.030302979,4419.48484804,3647.27272691,4197.45454503,20.606060604,4876.42424194,3820.36363598,4410.72727229,247.272727248,42.0,42.0,?
2017-08-07 13:38:59.089241,4545.18181773,3869.81818143,4237.63636321,4215.99999958,3875.4848481,593.454545395,4051.66666626,201.939393919,4336.0303026,325.575757543,4474.60606016,251.393939369,4229.39393897,3787.39393902,4393.21212077,3206.30302998,5022.72727222,3338.18181785,4067.12121171,511.030302979,4426.18181774,3647.27272691,4205.69696928,20.606060604,4880.03030254,3820.36363598,4423.09090865,247.272727248,42.0,42.0,?
2017-08-07 13:38:59.107043,4543.12121167,3869.81818143,4238.66666624,4215.99999958,3880.63636325,593.454545395,4054.75757535,201.939393919,4338.09090866,325.575757543,4477.18181773,251.393939369,4235.06060564,3787.39393902,4396.81818138,3206.30302998,5024.27272677,3338.18181785,4066.09090868,523.393939342,4422.57575713,3647.27272691,4204.15151473,20.606060604,4877.96969648,3820.36363598,4432.36363592,247.272727248,42.0,42.0,?
2017-08-07 13:38:59.117720,4537.96969652,3869.81818143,4234.03030261,4215.99999958,3879.0909087,593.454545395,4054.24242384,201.939393919,4340.66666623,325.575757543,4472.5454541,251.393939369,4239.69696927,3787.39393902,4396.30302986,3206.30302998,5018.09090859,3338.18181785,4056.81818141,523.393939342,4412.27272683,3651.39393903,4196.424242,20.606060604,4868.69696921,3820.36363598,4420.51515107,247.272727248,42.0,42.0,?
2017-08-07 13:38:59.123743,4537.96969652,3869.81818143,4232.48484806,4215.99999958,3878.57575719,593.454545395,4053.21212081,201.939393919,4344.27272684,325.575757543,4471.51515107,251.393939369,4241.75757533,3787.39393902,4396.30302986,3206.30302998,5018.6060601,3338.18181785,4054.75757535,523.393939342,4411.75757532,3651.39393903,4194.36363594,16.4848484832,4866.63636315,3820.36363598,4417.42424198,247.272727248,42.0,42.0,?
2017-08-07 13:38:59.128593,4542.09090864,3869.81818143,4236.09090867,4215.99999958,3881.15151476,593.454545395,4055.78787838,201.939393919,4342.21212078,325.575757543,4467.39393895,251.393939369,4237.63636321,3787.39393902,4397.84848441,3206.30302998,5023.75757526,3338.18181785,4062.48484808,523.393939342,4413.81818138,3651.39393903,4198.99999958,16.4848484832,4871.27272679,3807.99999962,4430.30302986,247.272727248,42.0,42.0,?
2017-08-07 13:38:59.136731,4544.66666621,3869.81818143,4236.60606018,4215.99999958,3881.66666628,593.454545395,4059.39393899,201.939393919,4336.54545411,325.575757543,4464.30302986,251.393939369,4234.54545412,3787.39393902,4394.2424238,3206.30302998,5023.75757526,3338.18181785,4066.6060602,519.272727221,4414.33333289,3651.39393903,4200.54545413,16.4848484832,4876.42424194,3807.99999962,4431.33333289,247.272727248,42.0,42.0,?
2017-08-07 13:38:59.142107,4546.72727227,3869.81818143,4236.60606018,4215.99999958,3881.15151476,593.454545395,4059.39393899,201.939393919,4336.0303026,325.575757543,4467.39393895,251.393939369,4232.48484806,3787.39393902,4388.57575714,3206.30302998,5020.15151465,3338.18181785,4065.06060565,519.272727221,4420.51515107,3643.15151479,4201.57575716,16.4848484832,4882.60606012,3807.99999962,4425.66666622,247.272727248,42.0,42.0,?
2017-08-07 13:38:59.147906,4545.69696924,3869.81818143,4237.1212117,4215.99999958,3882.18181779,593.454545395,4058.87878747,201.939393919,4339.6363632,325.575757543,4467.90909046,251.393939369,4227.33333291,3787.39393902,4390.6363632,3206.30302998,5018.09090859,3338.18181785,4064.03030262,519.272727221,4422.06060562,3643.15151479,4202.09090867,16.4848484832,4882.60606012,3807.99999962,4432.36363592,247.272727248,42.0,42.0,?
2017-08-07 13:38:59.156974,4544.66666621,3869.81818143,4235.57575715,4215.99999958,3884.75757537,593.454545395,4059.9090905,201.939393919,4332.93939351,325.575757543,4464.30302986,251.393939369,4224.24242382,3787.39393902,4390.6363632,3206.30302998,5017.57575707,3338.18181785,4059.9090905,519.272727221,4417.42424198,3643.15151479,4199.5151511,16.4848484832,4876.93939345,3807.99999962,4434.9393935,247.272727248,42.0,42.0,?
2017-08-07 13:38:59.168195,4543.12121167,3869.81818143,4235.57575715,4215.99999958,3885.27272688,593.454545395,4055.78787838,201.939393919,4330.36363593,325.575757543,4462.75757531,251.393939369,4220.63636321,3787.39393902,4378.27272683,3206.30302998,5017.06060556,3338.18181785,4052.69696929,519.272727221,4416.39393895,3643.15151479,4193.84848443,16.4848484832,4869.72727224,3807.99999962,4432.36363592,247.272727248,42.0,42.0,?
2017-08-07 13:38:59.170436,4543.12121167,3869.81818143,4235.57575715,4215.99999958,3885.27272688,593.454545395,4055.78787838,201.939393919,4330.36363593,325.575757543,4462.75757531,251.393939369,4220.63636321,3787.39393902,4378.27272683,3206.30302998,5017.06060556,3338.18181785,4052.69696929,519.272727221,4416.39393895,3643.15151479,4193.84848443,16.4848484832,4869.72727224,3807.99999962,4432.36363592,247.272727248,42.0,42.0,?
2017-08-07 13:38:59.181238,4543.12121167,3869.81818143,4233.51515109,4215.99999958,3882.69696931,593.454545395,4043.93939353,201.939393919,4333.45454502,325.575757543,4460.69696925,251.393939369,4219.60606018,3787.39393902,4375.69696926,3206.30302998,5012.42424192,3338.18181785,4040.84848444,519.272727221,4409.18181774,3643.15151479,4186.1212117,16.4848484832,4868.69696921,3807.99999962,4430.30302986,247.272727248,42.0,42.0,?
2017-08-07 13:38:59.191423,4543.12121167,3869.81818143,4232.48484806,4215.99999958,3881.66666628,593.454545395,4040.84848444,201.939393919,4329.3333329,325.575757543,4456.06060561,251.393939369,4220.1212117,3787.39393902,4376.72727229,3206.30302998,4999.03030253,3338.18181785,4034.66666626,519.272727221,4409.18181774,3643.15151479,4180.45454504,16.4848484832,4867.15151466,3807.99999962,4425.15151471,247.272727248,42.0,42.0,?
2017-08-07 13:38:59.203540,4540.03030258,3869.81818143,4229.90909049,4215.99999958,3880.12121173,593.454545395,4044.45454505,201.939393919,4320.57575714,325.575757543,4457.09090865,251.393939369,4220.1212117,3787.39393902,4375.18181774,3206.30302998,4995.42424192,3338.18181785,4040.84848444,519.272727221,4414.84848441,3643.15151479,4181.48484807,16.4848484832,4863.03030254,3807.99999962,4419.99999956,247.272727248,42.0,42.0,?
2017-08-07 13:38:59.207224,4540.54545409,3869.81818143,4227.33333291,4215.99999958,3880.63636325,593.454545395,4043.42424202,201.939393919,4326.24242381,325.575757543,4467.39393895,251.393939369,4224.24242382,3787.39393902,4379.30302987,3206.30302998,5011.90909041,3338.18181785,4044.96969657,519.272727221,4415.87878744,3643.15151479,4187.66666625,16.4848484832,4862.51515103,3807.99999962,4414.84848441,247.272727248,42.0,42.0,?
2017-08-07 13:38:59.215268,4544.66666621,3869.81818143,4228.87878746,4215.99999958,3884.24242385,593.454545395,4041.36363596,201.939393919,4334.99999957,325.575757543,4469.45454501,251.393939369,4232.99999958,3787.39393902,4388.06060562,3206.30302998,5025.81818132,3338.18181785,4050.12121172,519.272727221,4421.5454541,3643.15151479,4196.424242,16.4848484832,4874.36363588,3807.99999962,4419.99999956,247.272727248,42.0,42.0,?
2017-08-07 13:38:59.222412,4543.63636318,3869.81818143,4228.87878746,4215.99999958,3880.63636325,593.454545395,4040.33333293,201.939393919,4329.84848442,325.575757543,4457.60606016,251.393939369,4229.39393897,3787.39393902,4387.54545411,3206.30302998,5020.15151465,3338.18181785,4053.72727232,519.272727221,4431.33333289,3643.15151479,4200.54545413,16.4848484832,4883.12121163,3807.99999962,4431.84848441,247.272727248,42.0,42.0,?
2017-08-07 13:38:59.231046,4535.39393894,3869.81818143,4224.75757534,4215.99999958,3874.96969658,593.454545395,4036.21212081,201.939393919,4326.75757532,325.575757543,4455.5454541,251.393939369,4213.424242,3787.39393902,4373.12121168,3206.30302998,5005.21212071,3338.18181785,4046.51515111,519.272727221,4427.21212077,3643.15151479,4192.30302988,16.4848484832,4871.7878783,3807.99999962,4431.84848441,247.272727248,42.0,42.0,?
2017-08-07 13:38:59.234914,4528.69696924,3869.81818143,4219.09090867,4215.99999958,3873.42424204,593.454545395,4029.51515111,201.939393919,4330.36363593,325.575757543,4461.72727228,251.393939369,4202.60606019,3787.39393902,4360.24242381,3206.30302998,4997.48484799,3338.18181785,4033.12121172,519.272727221,4415.36363592,3643.15151479,4173.75757534,16.4848484832,4855.30302982,3807.99999962,4419.48484804,247.272727248,42.0,42.0,?
2017-08-07 13:38:59.241490,4528.69696924,3869.81818143,4218.57575715,4215.99999958,3869.30302992,593.454545395,4026.42424202,201.939393919,4324.69696926,325.575757543,4460.18181774,251.393939369,4205.18181776,3787.39393902,4361.78787835,3206.30302998,4994.39393889,3338.18181785,4025.90909051,519.272727221,4409.69696926,3643.15151479,4161.90909049,16.4848484832,4851.1818177,3807.99999962,4414.84848441,247.272727248,42.0,42.0,?
2017-08-07 13:38:59.245737,4534.36363591,3869.81818143,4226.30302988,4215.99999958,3870.33333295,593.454545395,4027.45454505,201.939393919,4315.42424199,325.575757543,4453.48484804,251.393939369,4212.39393897,3787.39393902,4368.99999956,3206.30302998,4992.33333283,3338.18181785,4026.93939354,519.272727221,4410.72727229,3643.15151479,4168.09090867,16.4848484832,4855.81818133,3807.99999962,4422.06060562,247.272727248,42.0,42.0,?
2017-08-07 13:38:59.255142,4543.12121167,3869.81818143,4236.09090867,4215.99999958,3881.15151476,593.454545395,4030.03030263,201.939393919,4314.39393896,325.575757543,4450.39393895,251.393939369,4215.48484806,3787.39393902,4371.06060562,3206.30302998,4995.93939344,3338.18181785,4034.66666626,519.272727221,4418.45454501,3643.15151479,4178.90909049,16.4848484832,4861.99999951,3807.99999962,4430.81818138,247.272727248,42.0,42.0,?
2017-08-07 13:38:59.261237,4548.78787833,3869.81818143,4237.1212117,4215.99999958,3886.30302991,593.454545395,4027.96969657,201.939393919,4313.36363593,325.575757543,4447.81818137,251.393939369,4211.36363594,3787.39393902,4367.45454502,3206.30302998,5001.60606011,3338.18181785,4039.81818141,519.272727221,4422.57575713,3643.15151479,4178.39393898,16.4848484832,4867.15151466,3807.99999962,4435.96969653,247.272727248,42.0,42.0,?
2017-08-07 13:38:59.274702,4545.69696924,3869.81818143,4233.51515109,4215.99999958,3882.18181779,593.454545395,4021.78787839,201.939393919,4311.30302987,325.575757543,4447.30302986,251.393939369,4204.66666625,3787.39393902,4361.78787835,3206.30302998,5001.60606011,3338.18181785,4034.66666626,519.272727221,4419.99999956,3643.15151479,4172.21212079,16.4848484832,4866.63636315,3807.99999962,4430.81818138,247.272727248,42.0,42.0,?
2017-08-07 13:38:59.279561,4538.99999955,3869.81818143,4233.51515109,4215.99999958,3879.0909087,593.454545395,4020.24242384,201.939393919,4315.93939351,325.575757543,4451.93939349,251.393939369,4205.69696928,3787.39393902,4360.24242381,3206.30302998,4999.03030253,3338.18181785,4035.18181778,519.272727221,4419.99999956,3643.15151479,4168.60606019,16.4848484832,4863.03030254,3807.99999962,4425.66666622,247.272727248,42.0,42.0,?
2017-08-07 13:38:59.285059,4539.51515106,3869.81818143,4235.57575715,4215.99999958,3878.57575719,593.454545395,4019.72727233,201.939393919,4319.54545411,325.575757543,4448.8484844,251.393939369,4209.30302988,3787.39393902,4365.39393896,3206.30302998,4997.48484799,3338.18181785,4039.81818141,519.272727221,4420.51515107,3643.15151479,4168.60606019,16.4848484832,4861.99999951,3807.99999962,4427.21212077,247.272727248,42.0,42.0,?
2017-08-07 13:38:59.292541,4543.63636318,3869.81818143,4235.06060564,4215.99999958,3877.54545416,593.454545395,4017.15151475,201.939393919,4315.93939351,325.575757543,4446.78787834,251.393939369,4207.75757534,3787.39393902,4367.45454502,3206.30302998,4991.3030298,3338.18181785,4031.06060566,519.272727221,4416.90909047,3643.15151479,4167.06060564,16.4848484832,4860.96969648,3807.99999962,4427.72727228,247.272727248,42.0,42.0,?
2017-08-07 13:38:59.302177,4542.09090864,3869.81818143,4235.06060564,4215.99999958,3874.45454507,593.454545395,4017.15151475,201.939393919,4312.84848442,325.575757543,4448.8484844,251.393939369,4194.87878746,3787.39393902,4359.72727229,3206.30302998,4991.81818132,3338.18181785,4021.78787839,519.272727221,4413.81818138,3643.15151479,4163.45454504,16.4848484832,4858.39393891,3807.99999962,4423.09090865,247.272727248,42.0,42.0,?
2017-08-07 13:38:59.311024,4538.99999955,3869.81818143,4236.60606018,4215.99999958,3869.81818143,593.454545395,4018.18181778,201.939393919,4311.30302987,325.575757543,4444.72727228,251.393939369,4187.66666625,3787.39393902,4355.09090866,3206.30302998,4994.39393889,3338.18181785,4024.36363596,519.272727221,4415.87878744,3643.15151479,4164.48484807,16.4848484832,4860.96969648,3807.99999962,4420.51515107,247.272727248,42.0,42.0,?
2017-08-07 13:38:59.318512,4537.454545,3869.81818143,4234.03030261,4215.99999958,3867.75757537,593.454545395,4018.6969693,201.939393919,4313.87878745,325.575757543,4443.69696925,251.393939369,4197.96969655,3787.39393902,4356.6363632,3206.30302998,4986.15151465,3338.18181785,4024.36363596,519.272727221,4413.30302986,3643.15151479,4165.5151511,16.4848484832,4864.57575709,3807.99999962,4418.96969653,247.272727248,42.0,42.0,?
2017-08-07 13:38:59.324431,4530.7575753,3869.81818143,4224.24242382,4215.99999958,3864.66666628,593.454545395,4027.96969657,201.939393919,4316.96969654,325.575757543,4447.30302986,251.393939369,4199.5151511,3787.39393902,4358.69696926,3206.30302998,4980.9999995,3338.18181785,4020.24242384,519.272727221,4401.96969653,3643.15151479,4159.84848443,16.4848484832,4853.75757527,3807.99999962,4413.30302986,247.272727248,42.0,42.0,?
2017-08-07 13:38:59.331209,4526.63636318,3869.81818143,4219.09090867,4215.99999958,3861.06060567,593.454545395,4045.48484808,201.939393919,4306.66666624,325.575757543,4442.66666622,251.393939369,4186.63636322,3787.39393902,4358.18181775,3206.30302998,4988.72727223,3338.18181785,4020.75757536,519.272727221,4400.9393935,3643.15151479,4154.18181777,16.4848484832,4843.45454497,3807.99999962,4407.6363632,247.272727248,42.0,42.0,?
2017-08-07 13:38:59.340953,4527.66666621,3869.81818143,4223.7272723,4215.99999958,3860.54545416,593.454545395,4056.81818141,201.939393919,4297.90909048,325.575757543,4439.06060562,251.393939369,4191.27272685,3787.39393902,4360.75757532,3206.30302998,4992.84848435,3338.18181785,4020.24242384,519.272727221,4407.6363632,3643.15151479,4159.84848443,16.4848484832,4848.09090861,3807.99999962,4405.06060562,247.272727248,42.0,42.0,?
2017-08-07 13:38:59.349157,4533.8484844,3869.81818143,4230.424242,4215.99999958,3866.21212083,593.454545395,4056.81818141,201.939393919,4303.57575715,325.575757543,4442.66666622,251.393939369,4205.18181776,3787.39393902,4365.39393896,3206.30302998,4996.96969647,3338.18181785,4025.90909051,519.272727221,4415.36363592,3643.15151479,4172.72727231,16.4848484832,4857.87878739,3807.99999962,4410.21212077,247.272727248,42.0,42.0,?
2017-08-07 13:38:59.355572,4541.57575712,3869.81818143,4234.03030261,4215.99999958,3870.84848446,593.454545395,4049.09090869,201.939393919,4305.63636321,325.575757543,4436.99999956,251.393939369,4201.57575716,3787.39393902,4365.39393896,3206.30302998,5004.18181768,3338.18181785,4040.33333293,519.272727221,4424.12121168,3643.15151479,4175.8181814,16.4848484832,4863.54545406,3807.99999962,4419.48484804,247.272727248,42.0,42.0,?
2017-08-07 13:38:59.365406,4542.60606015,3869.81818143,4234.03030261,4215.99999958,3873.93939355,593.454545395,4038.78787838,201.939393919,4304.09090866,325.575757543,4432.36363592,251.393939369,4197.45454503,3787.39393902,4365.39393896,3206.30302998,5007.27272677,3338.18181785,4046.51515111,519.272727221,4426.69696925,3643.15151479,4173.75757534,16.4848484832,4866.12121163,3807.99999962,4421.5454541,247.272727248,42.0,42.0,?
2017-08-07 13:38:59.373492,4540.03030258,3869.81818143,4234.03030261,4215.99999958,3873.93939355,593.454545395,4031.57575717,201.939393919,4311.81818139,325.575757543,4443.69696925,251.393939369,4204.66666625,3787.39393902,4368.48484805,3206.30302998,5006.24242374,3338.18181785,4045.48484808,519.272727221,4422.06060562,3643.15151479,4175.30302989,16.4848484832,4863.54545406,3807.99999962,4416.39393895,247.272727248,42.0,42.0,?
2017-08-07 13:38:59.381640,4537.96969652,3869.81818143,4235.06060564,4215.99999958,3869.81818143,593.454545395,4025.90909051,201.939393919,4319.54545411,325.575757543,4450.90909046,251.393939369,4209.30302988,3787.39393902,4368.48484805,3206.30302998,5002.12121162,3338.18181785,4041.87878747,519.272727221,4414.33333289,3643.15151479,4170.15151473,16.4848484832,4854.27272679,3807.99999962,4413.81818138,247.272727248,42.0,42.0,?
2017-08-07 13:38:59.387117,4536.42424197,3869.81818143,4235.57575715,4215.99999958,3872.39393901,593.454545395,4019.21212081,201.939393919,4319.0303026,325.575757543,4446.78787834,251.393939369,4205.69696928,3787.39393902,4362.81818138,3206.30302998,4999.03030253,3338.18181785,4040.33333293,519.272727221,4410.72727229,3643.15151479,4166.54545413,16.4848484832,4848.09090861,3807.99999962,4417.9393935,247.272727248,42.0,42.0,?
2017-08-07 13:38:59.396220,4537.454545,3869.81818143,4236.60606018,4215.99999958,3876.51515113,593.454545395,4011.9999996,201.939393919,4318.51515108,325.575757543,4447.30302986,251.393939369,4202.09090867,3787.39393902,4363.84848441,3206.30302998,4997.9999995,3338.18181785,4042.39393899,519.272727221,4414.84848441,3643.15151479,4170.66666625,16.4848484832,4851.69696921,3807.99999962,4417.9393935,247.272727248,42.0,42.0,?
2017-08-07 13:38:59.405203,4540.03030258,3869.81818143,4238.15151473,4215.99999958,3870.33333295,593.454545395,4007.87878748,201.939393919,4318.51515108,325.575757543,4449.87878743,251.393939369,4205.69696928,3787.39393902,4376.72727229,3206.30302998,4997.48484799,3338.18181785,4043.42424202,519.272727221,4416.39393895,3643.15151479,4174.27272686,16.4848484832,4856.84848436,3807.99999962,4416.39393895,247.272727248,42.0,42.0,?
2017-08-07 13:38:59.411383,4541.06060561,3869.81818143,4238.15151473,4215.99999958,3867.24242386,593.454545395,4007.87878748,201.939393919,4316.45454502,325.575757543,4446.27272683,251.393939369,4206.72727231,3787.39393902,4378.78787835,3206.30302998,4994.90909041,3338.18181785,4038.78787838,519.272727221,4411.75757532,3643.15151479,4170.15151473,16.4848484832,4855.81818133,3807.99999962,4416.90909047,247.272727248,42.0,42.0,?
2017-08-07 13:38:59.417300,4541.57575712,3869.81818143,4236.09090867,4215.99999958,3877.54545416,593.454545395,4004.78787839,201.939393919,4314.39393896,325.575757543,4439.57575713,251.393939369,4203.1212117,3787.39393902,4365.39393896,3206.30302998,4992.84848435,3338.18181785,4037.24242384,519.272727221,4406.09090865,3643.15151479,4166.54545413,16.4848484832,4849.12121164,3807.99999962,4420.51515107,247.272727248,42.0,42.0,?
2017-08-07 13:38:59.426900,4545.18181773,3869.81818143,4237.1212117,4215.99999958,3882.18181779,593.454545395,4002.72727233,201.939393919,4315.93939351,325.575757543,4439.06060562,251.393939369,4203.63636322,3787.39393902,4363.84848441,3206.30302998,4996.45454495,3338.18181785,4039.81818141,519.272727221,4411.75757532,3643.15151479,4171.69696928,16.4848484832,4853.24242376,3807.99999962,4425.66666622,247.272727248,42.0,42.0,?
2017-08-07 13:38:59.434654,4551.36363591,3869.81818143,4238.15151473,4215.99999958,3878.06060567,593.454545395,4005.3030299,201.939393919,4319.54545411,325.575757543,4448.33333289,251.393939369,4208.27272685,3787.39393902,4376.21212077,3206.30302998,5000.57575708,3338.18181785,4040.84848444,519.272727221,4423.60606016,3643.15151479,4174.78787837,16.4848484832,4867.66666618,3807.99999962,4432.36363592,247.272727248,42.0,42.0,?
2017-08-07 13:38:59.444239,4553.42424197,3869.81818143,4235.57575715,4215.99999958,3882.69696931,593.454545395,4000.15151475,201.939393919,4317.99999957,325.575757543,4448.8484844,251.393939369,4207.75757534,3787.39393902,4376.72727229,3206.30302998,5001.09090859,3338.18181785,4043.42424202,519.272727221,4422.57575713,3643.15151479,4174.27272686,16.4848484832,4870.24242376,3807.99999962,4435.45454501,247.272727248,42.0,42.0,?
2017-08-07 13:38:59.449154,4548.27272682,3869.81818143,4237.63636321,4215.99999958,3885.27272688,593.454545395,3986.75757536,201.939393919,4320.57575714,325.575757543,4442.66666622,251.393939369,4208.27272685,3787.39393902,4372.60606017,3206.30302998,5000.57575708,3338.18181785,4044.96969657,519.272727221,4416.39393895,3643.15151479,4173.75757534,16.4848484832,4861.484848,3807.99999962,4429.27272683,247.272727248,42.0,42.0,?
2017-08-07 13:38:59.456329,4541.57575712,3869.81818143,4235.06060564,4215.99999958,3873.42424204,593.454545395,3998.09090869,201.939393919,4323.66666623,325.575757543,4445.75757531,251.393939369,4212.39393897,3787.39393902,4376.72727229,3206.30302998,5001.60606011,3338.18181785,4038.78787838,519.272727221,4413.30302986,3643.15151479,4173.24242383,16.4848484832,4856.33333285,3807.99999962,4416.90909047,247.272727248,42.0,42.0,?
2017-08-07 13:38:59.464796,4538.99999955,3869.81818143,4224.24242382,4215.99999958,3867.75757537,593.454545395,4003.24242384,201.939393919,4318.51515108,325.575757543,4447.81818137,251.393939369,4210.33333291,3787.39393902,4376.21212077,3206.30302998,5001.09090859,3338.18181785,4032.09090869,519.272727221,4410.21212077,3643.15151479,4170.15151473,16.4848484832,4853.75757527,3807.99999962,4409.69696926,247.272727248,42.0,42.0,?
2017-08-07 13:38:59.474617,4543.12121167,3869.81818143,4224.75757534,4215.99999958,3878.57575719,593.454545395,3981.09090869,201.939393919,4314.90909048,325.575757543,4442.15151471,251.393939369,4207.24242382,3787.39393902,4371.57575714,3206.30302998,5002.63636314,3338.18181785,4035.18181778,519.272727221,4409.18181774,3643.15151479,4169.1212117,16.4848484832,4853.75757527,3807.99999962,4414.84848441,247.272727248,42.0,42.0,?
2017-08-07 13:38:59.480697,4534.36363591,3869.81818143,4218.57575715,4215.99999958,3865.1818178,593.454545395,4092.36363595,201.939393919,4303.06060563,325.575757543,4429.78787834,251.393939369,4189.72727231,3787.39393902,4355.09090866,3206.30302998,4986.15151465,3338.18181785,4020.75757536,519.272727221,4394.2424238,3643.15151479,4153.66666625,16.4848484832,4841.90909042,3807.99999962,4402.99999956,247.272727248,42.0,42.0,?
2017-08-07 13:38:59.488122,4505.51515106,3869.81818143,4184.57575716,4215.99999958,3822.93939356,593.454545395,4345.30302987,201.939393919,4267.51515109,325.575757543,4404.54545411,251.393939369,4147.48484807,3787.39393902,4316.96969654,3206.30302998,4938.75757526,3338.18181785,3974.90909051,519.272727221,4357.15151472,3643.15151479,4109.36363595,16.4848484832,4803.78787831,3807.99999962,4362.30302987,247.272727248,42.0,42.0,?
2017-08-07 13:38:59.496792,4489.03030258,3869.81818143,4161.39393898,4215.99999958,3802.84848447,593.454545395,4478.72727228,201.939393919,4241.75757533,325.575757543,4380.84848441,251.393939369,4119.66666625,3787.39393902,4293.27272684,3206.30302998,4903.72727224,3338.18181785,3948.12121173,519.272727221,4332.42424199,3643.15151479,4084.12121171,16.4848484832,4772.36363589,3807.99999962,4337.06060563,247.272727248,42.0,42.0,?
2017-08-07 13:38:59.504148,4491.09090864,3869.81818143,4168.09090867,4215.99999958,3811.09090871,593.454545395,4442.66666622,201.939393919,4247.93939351,325.575757543,4374.15151471,251.393939369,4122.75757535,3787.39393902,4297.39393896,3206.30302998,4911.96969648,3338.18181785,3957.90909051,519.272727221,4336.0303026,3643.15151479,4094.93939353,16.4848484832,4773.90909043,3807.99999962,4342.72727229,247.272727248,42.0,42.0,?
2017-08-07 13:38:59.511765,4492.63636319,3869.81818143,4170.66666625,4215.99999958,3810.06060568,593.454545395,4430.30302986,201.939393919,4249.48484806,325.575757543,4376.21212077,251.393939369,4126.36363595,3787.39393902,4299.45454502,3206.30302998,4925.36363587,3338.18181785,3965.12121172,519.272727221,4342.21212078,3643.15151479,4101.12121171,16.4848484832,4781.12121164,3807.99999962,4347.36363593,247.272727248,42.0,42.0,?
2017-08-07 13:38:59.520096,4490.06060561,3865.69696931,4166.03030261,4215.99999958,3803.8787875,593.454545395,4452.45454501,201.939393919,4238.66666624,325.575757543,4379.81818138,251.393939369,4121.72727232,3787.39393902,4293.78787836,3206.30302998,4919.6969692,3338.18181785,3958.93939354,519.272727221,4337.57575714,3643.15151479,4093.39393898,16.4848484832,4776.48484801,3807.99999962,4342.21212078,247.272727248,42.0,42.0,?
2017-08-07 13:38:59.527920,4491.60606016,3865.69696931,4170.66666625,4211.87878746,3809.03030265,593.454545395,4435.45454501,201.939393919,4241.24242382,325.575757543,4385.99999956,251.393939369,4125.84848444,3787.39393902,4294.81818139,3206.30302998,4919.6969692,3338.18181785,3960.48484809,519.272727221,4336.0303026,3643.15151479,4092.87878747,16.4848484832,4771.84848437,3807.99999962,4341.18181775,247.272727248,42.0,42.0,?
2017-08-07 13:38:59.536198,4493.66666622,3865.69696931,4172.72727231,4211.87878746,3813.15151477,593.454545395,4425.15151471,201.939393919,4249.99999958,325.575757543,4385.99999956,251.393939369,4126.36363595,3787.39393902,4295.84848442,3206.30302998,4926.3939389,3338.18181785,3970.27272688,519.272727221,4338.60606017,3643.15151479,4099.57575717,16.4848484832,4771.33333286,3807.99999962,4343.75757532,255.51515149,42.0,42.0,?
2017-08-07 13:38:59.542703,4494.18181773,3865.69696931,4170.66666625,4211.87878746,3816.24242386,597.575757516,4420.51515107,201.939393919,4249.99999958,325.575757543,4387.54545411,251.393939369,4125.33333292,3787.39393902,4296.36363593,3206.30302998,4931.03030254,3338.18181785,3976.45454506,519.272727221,4339.12121169,3643.15151479,4101.63636323,16.4848484832,4775.45454498,3807.99999962,4342.21212078,255.51515149,42.0,42.0,?
2017-08-07 13:38:59.556875,4497.27272682,3865.69696931,4171.69696928,4211.87878746,3814.1818178,597.575757516,4404.54545411,197.818181798,4252.06060564,325.575757543,4395.27272683,251.393939369,4134.09090868,3787.39393902,4305.63636321,3206.30302998,4936.18181769,3338.18181785,3976.45454506,519.272727221,4340.66666623,3643.15151479,4105.24242383,16.4848484832,4781.63636316,3807.99999962,4342.21212078,255.51515149,42.0,42.0,?
2017-08-07 13:38:59.559526,4493.1515147,3865.69696931,4173.24242383,4211.87878746,3807.99999962,597.575757516,4398.36363592,197.818181798,4250.51515109,333.818181785,4395.78787835,251.393939369,4139.75757534,3787.39393902,4310.27272684,3206.30302998,4936.18181769,3338.18181785,3972.33333294,519.272727221,4340.66666623,3643.15151479,4102.15151474,16.4848484832,4781.63636316,3807.99999962,4344.78787835,255.51515149,42.0,42.0,?
2017-08-07 13:38:59.566132,4493.1515147,3865.69696931,4171.18181776,4211.87878746,3804.39393901,597.575757516,4393.21212077,197.818181798,4250.51515109,333.818181785,4392.69696926,259.63636361,4138.72727231,3787.39393902,4302.54545412,3206.30302998,4932.06060557,3338.18181785,3967.18181779,519.272727221,4336.54545411,3643.15151479,4092.36363595,16.4848484832,4776.48484801,3807.99999962,4338.09090866,255.51515149,42.0,42.0,?
2017-08-07 13:38:59.574757,4487.99999955,3865.69696931,4170.15151473,4211.87878746,3802.84848447,597.575757516,4384.45454502,197.818181798,4247.424242,333.818181785,4394.2424238,259.63636361,4139.24242383,3783.27272689,4296.87878745,3206.30302998,4934.12121163,3338.18181785,3960.9999996,519.272727221,4332.42424199,3643.15151479,4091.84848444,16.4848484832,4772.8787874,3807.99999962,4329.3333329,255.51515149,42.0,42.0,?
2017-08-07 13:38:59.583233,4490.06060561,3865.69696931,4171.18181776,4211.87878746,3805.93939356,597.575757516,4381.36363593,197.818181798,4251.03030261,333.818181785,4395.78787835,259.63636361,4138.2121208,3783.27272689,4299.45454502,3202.18181786,4932.57575708,3338.18181785,3959.96969657,519.272727221,4330.87878745,3643.15151479,4097.51515111,16.4848484832,4772.8787874,3807.99999962,4336.54545411,255.51515149,42.0,42.0,?
2017-08-07 13:38:59.589876,4495.21212076,3865.69696931,4171.18181776,4211.87878746,3811.60606022,597.575757516,4379.81818138,197.818181798,4249.99999958,333.818181785,4391.66666623,259.63636361,4134.60606019,3783.27272689,4302.0303026,3202.18181786,4926.3939389,3334.06060573,3966.15151475,519.272727221,4336.0303026,3643.15151479,4098.54545414,16.4848484832,4777.51515104,3807.99999962,4348.90909047,255.51515149,42.0,42.0,?
2017-08-07 13:38:59.606382,4507.57575713,3865.69696931,4185.09090867,4211.87878746,3819.84848447,597.575757516,4371.06060562,197.818181798,4253.60606018,333.818181785,4385.48484805,259.63636361,4140.78787837,3783.27272689,4305.63636321,3202.18181786,4939.27272678,3334.06060573,3977.48484809,515.1515151,4346.3333329,3647.27272691,4108.84848444,16.4848484832,4791.42424195,3807.99999962,4355.60606017,255.51515149,42.0,42.0,?
2017-08-07 13:38:59.610980,4507.57575713,3865.69696931,4185.09090867,4211.87878746,3819.84848447,597.575757516,4371.06060562,197.818181798,4253.60606018,333.818181785,4385.48484805,259.63636361,4140.78787837,3783.27272689,4305.63636321,3202.18181786,4939.27272678,3334.06060573,3977.48484809,515.1515151,4346.3333329,3647.27272691,4108.84848444,16.4848484832,4791.42424195,3807.99999962,4355.60606017,255.51515149,42.0,42.0,?
2017-08-07 13:38:59.613970,4506.03030258,3865.69696931,4176.84848443,4211.87878746,3817.78787841,597.575757516,4369.51515108,197.818181798,4243.30302988,333.818181785,4381.36363593,259.63636361,4142.33333292,3783.27272689,4310.27272684,3202.18181786,4938.24242375,3334.06060573,3976.96969657,515.1515151,4347.36363593,3647.27272691,4109.36363595,20.606060604,4789.8787874,3807.99999962,4356.6363632,255.51515149,42.0,42.0,?
2017-08-07 13:38:59.623241,4500.87878743,3865.69696931,4172.72727231,4211.87878746,3816.75757538,597.575757516,4363.3333329,197.818181798,4237.1212117,333.818181785,4374.66666623,259.63636361,4142.33333292,3783.27272689,4311.81818139,3202.18181786,4935.15151466,3334.06060573,3978.51515112,515.1515151,4345.81818138,3647.27272691,4105.24242383,20.606060604,4788.33333285,3807.99999962,4353.54545411,255.51515149,42.0,42.0,?
2017-08-07 13:38:59.631625,4504.99999955,3865.69696931,4184.57575716,4211.87878746,3821.90909053,597.575757516,4364.87878744,197.818181798,4247.424242,333.818181785,4377.75757532,259.63636361,4140.27272686,3783.27272689,4310.78787836,3202.18181786,4939.27272678,3334.06060573,3986.75757536,519.272727221,4347.36363593,3647.27272691,4112.96969656,20.606060604,4793.48484801,3807.99999962,4358.18181775,255.51515149,42.0,42.0,?
2017-08-07 13:38:59.637008,4516.33333288,3865.69696931,4190.24242382,4211.87878746,3833.24242386,597.575757516,4368.48484805,197.818181798,4253.60606018,333.818181785,4389.60606017,259.63636361,4138.72727231,3783.27272689,4308.21212078,3202.18181786,4945.45454496,3334.06060573,3993.96969657,519.272727221,4356.12121169,3647.27272691,4123.78787838,20.606060604,4805.84848437,3807.99999962,4368.99999956,255.51515149,42.0,42.0,?
2017-08-07 13:38:59.646058,4521.48484803,3865.69696931,4186.63636322,4211.87878746,3836.33333295,597.575757516,4361.27272684,197.818181798,4251.54545412,333.818181785,4392.18181774,259.63636361,4139.75757534,3783.27272689,4307.18181775,3202.18181786,4944.42424193,3334.06060573,3994.48484809,519.272727221,4359.21212078,3647.27272691,4122.75757535,24.7272727248,4809.96969649,3807.99999962,4370.03030259,255.51515149,42.0,42.0,?
2017-08-07 13:38:59.652859,4514.78787834,3865.69696931,4187.15151473,4211.87878746,3830.66666628,597.575757516,4351.48484805,197.818181798,4254.1212117,333.818181785,4387.03030259,259.63636361,4133.57575716,3783.27272689,4303.06060563,3202.18181786,4938.75757526,3334.06060573,3989.84848445,519.272727221,4350.45454502,3647.27272691,4112.96969656,24.7272727248,4800.1818177,3807.99999962,4363.84848441,255.51515149,42.0,42.0,?
2017-08-07 13:38:59.663520,4508.09090864,3865.69696931,4189.72727231,4211.87878746,3827.06060568,597.575757516,4350.96969653,197.818181798,4255.15151473,333.818181785,4388.57575714,259.63636361,4129.45454504,3783.27272689,4299.96969654,3202.18181786,4943.3939389,3334.06060573,3986.75757536,519.272727221,4344.27272684,3647.27272691,4108.84848444,24.7272727248,4795.54545407,3807.99999962,4364.87878744,255.51515149,42.0,42.0,?
2017-08-07 13:38:59.670108,4515.81818137,3865.69696931,4191.27272685,4211.87878746,3830.66666628,597.575757516,4352.51515108,197.818181798,4252.57575715,333.818181785,4394.75757532,259.63636361,4138.72727231,3783.27272689,4308.21212078,3202.18181786,4952.66666617,3334.06060573,3992.42424203,519.272727221,4355.09090866,3647.27272691,4117.60606019,24.7272727248,4804.81818134,3807.99999962,4372.09090865,255.51515149,42.0,42.0,?
2017-08-07 13:38:59.675765,4519.93939349,3865.69696931,4191.27272685,4211.87878746,3828.09090871,597.575757516,4346.84848441,197.818181798,4254.1212117,333.818181785,4394.75757532,259.63636361,4144.90909049,3783.27272689,4314.90909048,3202.18181786,4950.0909086,3334.06060573,3995.51515112,519.272727221,4360.75757532,3647.27272691,4121.72727232,24.7272727248,4808.93939346,3807.99999962,4370.03030259,255.51515149,42.0,42.0,?
2017-08-07 13:38:59.683920,4509.12121167,3865.69696931,4187.66666625,4211.87878746,3818.81818144,597.575757516,4336.54545411,197.818181798,4253.09090867,333.818181785,4390.6363632,259.63636361,4143.36363595,3783.27272689,4311.81818139,3202.18181786,4943.3939389,3334.06060573,3986.24242384,519.272727221,4348.90909047,3647.27272691,4112.96969656,24.7272727248,4801.72727225,3807.99999962,4361.78787835,255.51515149,42.0,42.0,?
2017-08-07 13:38:59.691017,4504.99999955,3865.69696931,4186.63636322,4211.87878746,3818.30302992,597.575757516,4337.06060563,197.818181798,4252.57575715,333.818181785,4393.72727229,259.63636361,4151.09090868,3783.27272689,4312.84848442,3202.18181786,4944.42424193,3334.06060573,3984.6969693,519.272727221,4347.36363593,3647.27272691,4110.39393898,24.7272727248,4798.63636316,3807.99999962,4360.24242381,255.51515149,42.0,42.0,?
2017-08-07 13:38:59.701148,4511.69696925,3865.69696931,4188.18181776,4211.87878746,3820.8787875,597.575757516,4346.3333329,197.818181798,4256.18181776,333.818181785,4397.84848441,259.63636361,4159.84848443,3783.27272689,4322.12121169,3202.18181786,4948.03030254,3334.06060573,3994.9999996,519.272727221,4358.69696926,3647.27272691,4120.69696928,24.7272727248,4802.24242376,3807.99999962,4363.84848441,255.51515149,42.0,42.0,?
2017-08-07 13:38:59.707687,4515.81818137,3865.69696931,4187.66666625,4211.87878746,3821.39393901,597.575757516,4349.9393935,197.818181798,4254.63636321,333.818181785,4394.2424238,259.63636361,4156.75757534,3783.27272689,4321.60606017,3202.18181786,4948.03030254,3334.06060573,4003.75757536,519.272727221,4363.84848441,3647.27272691,4127.9090905,24.7272727248,4808.93939346,3807.99999962,4367.45454502,255.51515149,42.0,42.0,?
2017-08-07 13:38:59.714561,4518.90909046,3865.69696931,4188.69696928,4211.87878746,3827.06060568,597.575757516,4345.30302987,197.818181798,4249.48484806,333.818181785,4389.09090865,259.63636361,4152.12121171,3783.27272689,4312.84848442,3202.18181786,4949.06060557,3334.06060573,4005.3030299,519.272727221,4362.30302987,3647.27272691,4122.75757535,24.7272727248,4812.03030255,3807.99999962,4375.18181774,255.51515149,42.0,42.0,?
